,AF3,F7,F3,FC5,T7,P7,O1,O2,P8,T8,FC6,F4,F8,AF4,eyeDetection
0,4329.22998046875,4009.22998046875,4289.22998046875,4148.2099609375,4350.259765625,4586.14990234375,4096.919921875,4641.02978515625,4222.0498046875,4238.4599609375,4211.27978515625,4280.509765625,4635.89990234375,4393.85009765625,0
1,4324.6201171875,4004.6201171875,4293.85009765625,4148.72021484375,4342.0498046875,4586.669921875,4097.43994140625,4638.97021484375,4210.77001953125,4226.669921875,4207.68994140625,4279.490234375,4632.81982421875,4384.10009765625,0
2,4327.68994140625,,4295.3798828125,,4336.919921875,4583.58984375,4096.919921875,4630.259765625,4207.68994140625,4222.0498046875,4206.669921875,4282.0498046875,4628.72021484375,4389.22998046875,0
3,4328.72021484375,4011.7900390625,4296.41015625,4155.89990234375,4343.58984375,4582.56005859375,4097.43994140625,4630.77001953125,,4235.3798828125,4210.77001953125,4287.68994140625,4632.31005859375,4396.41015625,0
4,4326.14990234375,4011.7900390625,4292.31005859375,4151.27978515625,4347.68994140625,4586.669921875,4095.89990234375,4627.68994140625,4210.77001953125,4244.10009765625,4212.81982421875,4288.2099609375,4632.81982421875,4398.4599609375,0
5,4321.02978515625,4004.6201171875,4284.10009765625,,,4587.18017578125,4093.330078125,4616.919921875,4202.56005859375,4232.81982421875,4209.740234375,4281.02978515625,4628.2099609375,4389.740234375,0
6,4319.490234375,4001.030029296875,4280.509765625,4151.7900390625,4343.58984375,4584.6201171875,4089.739990234375,4615.89990234375,4212.31005859375,4226.669921875,4201.02978515625,4269.740234375,4625.1298828125,4378.4599609375,0
7,4325.64013671875,,4278.4599609375,4143.080078125,4344.10009765625,4583.080078125,4087.179931640625,4614.8701171875,,4230.259765625,,4266.669921875,4622.0498046875,4380.509765625,0
8,4326.14990234375,,4276.41015625,4139.490234375,4345.1298828125,,4091.280029296875,4608.2099609375,4187.68994140625,4229.740234375,4202.0498046875,4273.85009765625,4627.18017578125,4389.740234375,0
9,4326.14990234375,4011.280029296875,4276.919921875,4142.0498046875,4344.10009765625,4582.56005859375,,4608.72021484375,4194.35986328125,4228.72021484375,,,4637.43994140625,4393.330078125,0
10,4326.14990234375,,4272.81982421875,4143.080078125,4342.56005859375,4579.490234375,4087.68994140625,4615.89990234375,4206.14990234375,4228.72021484375,4210.77001953125,4272.81982421875,4631.7900390625,4382.56005859375,0
11,4316.919921875,4002.56005859375,4259.490234375,4135.89990234375,4339.490234375,4581.5400390625,4086.14990234375,4615.3798828125,4195.89990234375,,4197.43994140625,4262.0498046875,4613.330078125,4370.77001953125,0
12,4308.2099609375,3993.330078125,4247.68994140625,4124.6201171875,4335.89990234375,4584.6201171875,4089.739990234375,4610.259765625,4188.72021484375,4221.5400390625,4190.259765625,,4606.14990234375,4369.740234375,0
13,4308.2099609375,3998.4599609375,4251.7900390625,4122.56005859375,4338.4599609375,4584.6201171875,4091.280029296875,4616.919921875,4205.64013671875,4225.64013671875,4194.35986328125,4263.58984375,4610.259765625,4371.27978515625,0
14,4312.81982421875,4006.14990234375,4260.509765625,4127.68994140625,,4586.14990234375,4089.739990234375,4628.72021484375,4215.89990234375,4225.1298828125,4198.97021484375,,4611.7900390625,4375.89990234375,0
15,4313.85009765625,4003.590087890625,,4127.68994140625,4337.9501953125,4586.14990234375,4091.280029296875,4627.68994140625,4206.14990234375,4224.6201171875,4199.490234375,4269.22998046875,4610.259765625,4378.97021484375,0
16,,3997.949951171875,4247.18017578125,4122.56005859375,4336.919921875,,,4620.509765625,4202.56005859375,4226.14990234375,4193.85009765625,4254.35986328125,4606.14990234375,4369.740234375,0
17,,,4249.22998046875,4122.0498046875,4341.02978515625,4584.10009765625,4090.77001953125,4616.41015625,4203.58984375,4226.14990234375,4189.22998046875,4253.85009765625,4606.14990234375,4370.259765625,0
18,4312.31005859375,4000.0,4255.89990234375,,4342.0498046875,4586.669921875,4085.639892578125,4610.77001953125,4192.31005859375,4223.080078125,4192.31005859375,4264.6201171875,4614.8701171875,4382.0498046875,0
19,4315.89990234375,4003.590087890625,4257.43994140625,,4341.5400390625,,4088.2099609375,4607.18017578125,4188.2099609375,4216.919921875,,4270.259765625,4621.5400390625,,0
20,4314.35986328125,4005.639892578125,4259.490234375,4123.58984375,4345.1298828125,4588.2099609375,,4612.81982421875,4206.669921875,4222.56005859375,4209.740234375,4272.31005859375,,,0
21,4324.6201171875,4012.820068359375,4263.080078125,4132.31005859375,4343.080078125,4587.18017578125,4091.7900390625,4617.9501953125,4213.330078125,4240.509765625,,4274.35986328125,4632.31005859375,4400.509765625,0
22,4331.27978515625,4024.10009765625,4266.14990234375,4140.0,,4585.64013671875,4089.739990234375,4617.9501953125,4204.6201171875,4245.1298828125,4216.41015625,4274.35986328125,4638.97021484375,4401.5400390625,0
23,4326.669921875,4020.0,4264.10009765625,,4334.35986328125,,4088.2099609375,4621.5400390625,4213.330078125,4238.4599609375,4208.72021484375,,4634.35986328125,4385.1298828125,0
24,4321.5400390625,4007.68994140625,4260.0,4132.31005859375,4340.0,4585.64013671875,4087.179931640625,,,4242.56005859375,4208.72021484375,4270.259765625,4627.68994140625,4378.97021484375,0
25,4317.43994140625,4007.68994140625,4257.43994140625,4128.72021484375,,4585.1298828125,4088.2099609375,4638.97021484375,4231.7900390625,4247.68994140625,4209.22998046875,4269.740234375,,4386.14990234375,0
26,4311.7900390625,4007.179931640625,4250.77001953125,4125.1298828125,,4587.18017578125,4087.68994140625,4634.35986328125,4209.22998046875,4232.31005859375,4197.43994140625,4262.0498046875,4615.3798828125,4381.02978515625,0
27,4308.72021484375,,4245.1298828125,4121.5400390625,4329.22998046875,4585.64013671875,4086.669921875,4617.43994140625,,4216.41015625,4186.14990234375,4253.85009765625,4604.10009765625,4362.0498046875,0
28,4308.2099609375,4002.050048828125,4252.81982421875,4122.56005859375,,4582.56005859375,4087.68994140625,4610.77001953125,4192.81982421875,4216.41015625,4189.740234375,4256.919921875,4605.1298828125,,0
29,,4011.280029296875,4265.1298828125,4130.259765625,4339.490234375,4583.58984375,4089.739990234375,4616.41015625,4200.0,4220.509765625,4195.89990234375,4265.64013671875,4611.27978515625,4374.35986328125,0
30,4311.27978515625,4008.719970703125,4265.1298828125,4130.77001953125,4337.43994140625,4585.64013671875,4087.68994140625,,4190.259765625,4218.4599609375,4195.3798828125,4265.64013671875,4608.72021484375,4374.35986328125,0
31,4306.14990234375,4000.510009765625,4259.490234375,4121.02978515625,4330.259765625,4584.10009765625,4085.639892578125,4607.18017578125,4185.1298828125,4216.919921875,4200.0,4263.080078125,4611.27978515625,4369.22998046875,0
32,4307.18017578125,4003.080078125,4263.080078125,,,4582.56005859375,4086.669921875,4611.7900390625,4202.0498046875,4224.6201171875,4208.72021484375,4271.27978515625,4622.56005859375,4379.490234375,0
33,4314.8701171875,4008.2099609375,4268.2099609375,4128.2099609375,,4584.10009765625,4092.31005859375,4625.64013671875,4212.81982421875,4231.27978515625,4210.77001953125,4275.89990234375,4624.6201171875,4382.56005859375,0
34,4313.85009765625,4003.080078125,4263.58984375,4124.10009765625,4336.41015625,4586.669921875,4100.509765625,4633.330078125,4215.3798828125,4232.81982421875,4207.18017578125,4270.77001953125,4618.97021484375,4372.31005859375,0
35,4308.2099609375,3997.43994140625,4254.35986328125,4119.490234375,4332.81982421875,4588.72021484375,4097.9501953125,4628.2099609375,4217.43994140625,4235.3798828125,4208.2099609375,4268.72021484375,4621.5400390625,4368.2099609375,0
36,4308.72021484375,4006.14990234375,4253.330078125,4121.02978515625,4330.259765625,4585.64013671875,4082.050048828125,,4202.56005859375,4236.41015625,4208.72021484375,,4628.2099609375,,0
37,4306.14990234375,4007.68994140625,4253.330078125,4121.02978515625,4330.259765625,4579.490234375,4077.43994140625,,4186.669921875,4224.6201171875,4198.97021484375,4267.18017578125,4622.56005859375,4367.18017578125,0
38,4297.43994140625,3992.820068359375,4249.740234375,4118.4599609375,,4581.02978515625,4085.639892578125,4609.22998046875,4189.22998046875,4208.72021484375,4187.18017578125,4258.97021484375,4606.14990234375,4363.58984375,0
39,4301.02978515625,3994.360107421875,4252.81982421875,4119.490234375,4332.81982421875,4583.080078125,4087.68994140625,4611.7900390625,4195.89990234375,4210.259765625,4188.2099609375,4260.509765625,4601.02978515625,4366.669921875,0
40,4313.85009765625,4010.77001953125,4260.0,,4337.43994140625,4580.509765625,,4618.4599609375,,,4198.97021484375,,4613.330078125,4370.77001953125,0
41,4317.43994140625,4010.77001953125,4258.4599609375,4126.14990234375,4339.490234375,4584.10009765625,4094.360107421875,,4208.2099609375,4229.740234375,4201.5400390625,4271.27978515625,4619.490234375,4376.41015625,0
42,4305.64013671875,3998.4599609375,4251.7900390625,4121.5400390625,4331.7900390625,4584.6201171875,4094.8701171875,4620.0,4200.0,,4196.919921875,4268.72021484375,4610.77001953125,4370.259765625,0
43,,3995.3798828125,4249.22998046875,,4324.6201171875,4577.9501953125,4088.2099609375,4615.89990234375,4203.080078125,4213.330078125,4197.9501953125,4262.56005859375,4606.14990234375,4357.43994140625,0
44,4298.97021484375,,4247.68994140625,4123.080078125,4332.81982421875,4580.0,,4624.6201171875,4220.509765625,4224.10009765625,4205.64013671875,4265.1298828125,,4363.080078125,0
45,4302.56005859375,4006.669921875,4249.740234375,4120.509765625,4342.0498046875,4589.22998046875,,4627.68994140625,,4241.5400390625,4217.9501953125,,4627.68994140625,4375.89990234375,0
46,,4006.14990234375,4256.41015625,4118.4599609375,4333.85009765625,4587.68994140625,4097.9501953125,4621.5400390625,4206.669921875,4243.58984375,4223.080078125,4276.41015625,4633.330078125,4376.919921875,0
47,4315.3798828125,4000.510009765625,4262.56005859375,4120.509765625,,4583.58984375,4092.820068359375,4621.5400390625,4210.259765625,4240.0,4218.97021484375,4277.43994140625,4633.85009765625,4381.02978515625,0
48,4317.9501953125,4004.6201171875,4268.72021484375,4123.58984375,4337.9501953125,4585.1298828125,,4622.0498046875,4207.18017578125,4242.0498046875,4217.43994140625,4285.64013671875,4634.8701171875,4388.2099609375,0
49,,4013.85009765625,,4124.6201171875,4342.56005859375,4589.740234375,4089.22998046875,4616.41015625,4200.509765625,4232.81982421875,4213.330078125,4281.02978515625,4630.259765625,4375.89990234375,0
50,4305.1298828125,4008.719970703125,4259.490234375,,4341.02978515625,,4092.820068359375,4612.31005859375,,4219.490234375,4198.4599609375,4261.02978515625,4611.7900390625,,0
51,4293.330078125,3994.8701171875,4254.35986328125,,4337.43994140625,4596.41015625,4092.31005859375,4609.740234375,4193.330078125,4211.7900390625,4186.669921875,4252.81982421875,4597.9501953125,,0
52,,3994.360107421875,4258.4599609375,,,4594.35986328125,4096.919921875,4614.35986328125,4193.330078125,4209.740234375,4192.31005859375,4260.509765625,4602.0498046875,4350.77001953125,0
53,4308.2099609375,4007.179931640625,4268.2099609375,4126.14990234375,4344.6201171875,4595.3798828125,4102.0498046875,4622.56005859375,4205.1298828125,4221.5400390625,4205.1298828125,4271.7900390625,4614.35986328125,4374.8701171875,0
54,4315.89990234375,4021.030029296875,4277.9501953125,4134.35986328125,4346.14990234375,4591.27978515625,4095.89990234375,4620.0,,4235.3798828125,4212.31005859375,,4625.64013671875,4391.7900390625,0
55,4329.22998046875,4026.14990234375,4281.02978515625,4141.02978515625,4336.919921875,4585.64013671875,4085.639892578125,4613.330078125,4203.58984375,4233.85009765625,4213.330078125,4281.5400390625,4630.77001953125,4387.18017578125,0
56,4335.89990234375,,4281.02978515625,4144.10009765625,4336.41015625,4591.27978515625,4088.719970703125,4616.41015625,4202.0498046875,,4211.7900390625,,4631.27978515625,4385.64013671875,0
57,4324.6201171875,4018.969970703125,4276.41015625,4135.89990234375,,4600.509765625,4099.490234375,4626.14990234375,4211.27978515625,4242.0498046875,4216.41015625,4276.919921875,4632.81982421875,4388.72021484375,0
58,4314.8701171875,4011.280029296875,4268.72021484375,4122.56005859375,4334.35986328125,4602.0498046875,4100.509765625,4632.31005859375,4222.56005859375,4243.080078125,4221.02978515625,4283.58984375,4630.259765625,4381.02978515625,0
59,4312.81982421875,4005.639892578125,4266.14990234375,4124.6201171875,4333.330078125,4601.02978515625,,4632.31005859375,4218.4599609375,4240.0,4216.41015625,4278.4599609375,4622.0498046875,4374.8701171875,0
60,4312.31005859375,,4270.259765625,,4344.10009765625,4600.509765625,4099.490234375,4629.22998046875,4209.22998046875,4240.509765625,4213.330078125,4276.41015625,,4380.0,0
61,4312.81982421875,4010.260009765625,4268.72021484375,4129.740234375,4344.6201171875,4602.0498046875,4095.89990234375,4629.740234375,4214.35986328125,4236.41015625,4214.8701171875,4282.0498046875,4624.10009765625,4375.89990234375,0
62,4308.2099609375,,4264.6201171875,4121.5400390625,4333.85009765625,4601.02978515625,4094.8701171875,4631.7900390625,4215.3798828125,4228.72021484375,4208.2099609375,4278.97021484375,4612.81982421875,4363.080078125,0
63,4299.490234375,4002.56005859375,4265.64013671875,4123.080078125,4332.31005859375,4592.31005859375,,4619.490234375,4193.330078125,4221.02978515625,4197.9501953125,4268.72021484375,4602.56005859375,4358.4599609375,0
64,4296.41015625,4004.10009765625,4263.58984375,4122.0498046875,4342.0498046875,4590.77001953125,4082.050048828125,4606.14990234375,4176.919921875,4211.27978515625,,4267.18017578125,4602.0498046875,4360.509765625,0
65,4303.58984375,4003.590087890625,4261.02978515625,4126.14990234375,4346.669921875,4598.97021484375,4087.68994140625,4612.81982421875,4192.81982421875,4208.72021484375,,4274.35986328125,4601.02978515625,4358.4599609375,0
66,4313.330078125,4008.2099609375,4268.72021484375,4136.919921875,4342.56005859375,4595.3798828125,4091.280029296875,4623.080078125,4207.68994140625,4222.0498046875,4206.14990234375,4283.080078125,4607.68994140625,4362.56005859375,0
67,4316.41015625,4014.360107421875,4278.97021484375,4139.490234375,4337.9501953125,4583.58984375,,4614.8701171875,4198.4599609375,4234.8701171875,,4285.64013671875,4620.0,4378.4599609375,0
68,4320.0,4017.43994140625,4284.10009765625,,4337.43994140625,4586.14990234375,4086.669921875,4612.31005859375,4198.97021484375,4242.56005859375,4217.9501953125,4284.6201171875,4626.669921875,4389.740234375,0
69,4328.2099609375,4021.030029296875,4283.080078125,4141.02978515625,4332.81982421875,4599.490234375,4100.0,4630.259765625,4217.9501953125,4248.2099609375,4226.669921875,4291.7900390625,4632.81982421875,4388.72021484375,0
70,4325.1298828125,4019.489990234375,4281.5400390625,4136.41015625,,4606.14990234375,4109.740234375,4638.4599609375,4218.97021484375,4242.56005859375,4228.2099609375,4300.0,4636.41015625,,0
71,4312.81982421875,4010.260009765625,4282.0498046875,4129.740234375,4331.27978515625,,4108.72021484375,4628.72021484375,4212.31005859375,4233.85009765625,4221.5400390625,4300.0,4629.740234375,4380.0,0
72,4309.740234375,4005.639892578125,4278.4599609375,,4335.3798828125,4606.14990234375,4105.1298828125,4628.2099609375,4216.919921875,4237.43994140625,4214.8701171875,4291.27978515625,,4372.81982421875,0
73,,4005.1298828125,4269.22998046875,4130.259765625,4334.35986328125,4607.18017578125,4103.080078125,4629.22998046875,4211.27978515625,4233.85009765625,4205.64013671875,,4612.31005859375,4360.0,0
74,4300.0,4000.510009765625,4260.0,4121.5400390625,,4602.0498046875,4095.3798828125,4612.81982421875,4189.22998046875,4222.0498046875,4196.919921875,4269.740234375,4606.14990234375,4349.740234375,0
75,4299.490234375,3996.919921875,4253.85009765625,4125.64013671875,4337.9501953125,4590.259765625,4086.14990234375,4598.4599609375,4179.490234375,,4195.3798828125,4266.14990234375,4607.18017578125,4352.81982421875,0
76,4292.81982421875,4000.0,4249.740234375,4130.259765625,4340.509765625,4588.2099609375,4082.56005859375,4596.919921875,4183.080078125,4230.259765625,4195.89990234375,4263.080078125,4609.22998046875,4356.41015625,0
77,,4001.5400390625,4245.64013671875,4120.0,4334.8701171875,,4080.510009765625,4592.81982421875,4178.4599609375,4214.8701171875,4191.7900390625,,4605.64013671875,4347.68994140625,0
78,,4000.0,4244.6201171875,4118.97021484375,4334.35986328125,4600.509765625,4081.030029296875,4597.9501953125,4183.080078125,4204.6201171875,4188.2099609375,4260.509765625,4603.080078125,4345.64013671875,0
79,4301.5400390625,4005.639892578125,4251.27978515625,4134.8701171875,4345.1298828125,,4088.2099609375,4617.9501953125,4207.18017578125,4216.919921875,4192.31005859375,4269.740234375,4603.58984375,4353.85009765625,0
80,4299.490234375,,4260.0,4140.509765625,4349.740234375,,4091.7900390625,4625.64013671875,4214.8701171875,4231.7900390625,,4271.27978515625,4603.58984375,,0
81,4295.3798828125,4015.3798828125,4262.56005859375,4137.43994140625,4347.18017578125,4614.8701171875,4090.260009765625,4620.0,4210.77001953125,,4196.919921875,4268.2099609375,4605.64013671875,,0
82,4307.18017578125,4016.409912109375,,4138.4599609375,4348.72021484375,4615.89990234375,4093.85009765625,4625.1298828125,4220.0,4233.85009765625,4200.509765625,4275.3798828125,4614.35986328125,4365.1298828125,0
83,4318.97021484375,4021.5400390625,4277.43994140625,4141.5400390625,4348.72021484375,4612.31005859375,4099.490234375,4632.81982421875,4224.10009765625,4244.10009765625,4214.35986328125,4288.72021484375,4629.740234375,4371.27978515625,0
84,4317.43994140625,4021.5400390625,4281.5400390625,4140.509765625,4347.68994140625,4606.669921875,,,4206.669921875,4252.81982421875,4222.56005859375,4294.35986328125,4640.0,4381.02978515625,0
85,4313.330078125,4011.280029296875,4278.4599609375,4136.41015625,4345.1298828125,,4090.260009765625,4611.7900390625,4190.259765625,4241.5400390625,4214.8701171875,4289.740234375,4632.81982421875,4380.0,0
86,4314.8701171875,4002.56005859375,4271.7900390625,4134.35986328125,4335.3798828125,4609.740234375,4093.85009765625,4607.18017578125,4189.740234375,4222.0498046875,4205.1298828125,4282.56005859375,4622.0498046875,4367.18017578125,0
87,4314.35986328125,4009.22998046875,,4137.43994140625,4334.8701171875,4604.6201171875,4097.9501953125,,4201.5400390625,4224.6201171875,4206.669921875,4283.58984375,4626.669921875,4370.259765625,0
88,4312.31005859375,4018.4599609375,4277.43994140625,4142.0498046875,4346.14990234375,4606.14990234375,4096.919921875,4622.0498046875,4213.85009765625,4240.0,4217.43994140625,4288.72021484375,4636.41015625,4380.0,0
89,,4013.330078125,4279.490234375,4138.97021484375,4346.14990234375,,4094.8701171875,4623.58984375,4213.85009765625,4243.58984375,4221.5400390625,4290.77001953125,4635.3798828125,,0
90,4306.14990234375,4002.56005859375,4277.43994140625,4135.3798828125,4339.490234375,4602.0498046875,4094.360107421875,4625.1298828125,4208.72021484375,,4216.41015625,4288.72021484375,4628.2099609375,4366.14990234375,0
91,,4001.030029296875,4274.35986328125,4135.3798828125,4341.02978515625,4600.0,4088.719970703125,4628.72021484375,4210.77001953125,4236.41015625,4209.740234375,4284.10009765625,4623.080078125,,0
92,4308.72021484375,4009.739990234375,4268.72021484375,4136.919921875,4343.58984375,4608.2099609375,4083.080078125,4625.64013671875,,,4210.259765625,4282.0498046875,4624.6201171875,4366.669921875,0
93,4315.3798828125,4021.5400390625,4267.18017578125,4140.509765625,4347.18017578125,4613.330078125,4089.22998046875,4621.02978515625,4209.740234375,4238.4599609375,4213.85009765625,4282.0498046875,4625.1298828125,4359.490234375,0
94,4306.669921875,4016.919921875,4268.72021484375,4142.0498046875,4350.77001953125,4609.22998046875,4097.43994140625,4620.509765625,,,4206.14990234375,4277.43994140625,,4351.7900390625,0
95,4296.41015625,4003.590087890625,4262.56005859375,4136.919921875,4340.509765625,4605.1298828125,4096.41015625,4619.490234375,4197.43994140625,4214.35986328125,4193.330078125,4270.77001953125,4607.18017578125,4347.18017578125,0
96,4298.97021484375,4006.14990234375,4265.64013671875,4131.7900390625,,4604.6201171875,4088.719970703125,4612.81982421875,4194.8701171875,4211.7900390625,4196.919921875,4276.41015625,4613.85009765625,4358.97021484375,0
97,4314.8701171875,4018.969970703125,4283.080078125,4142.0498046875,,4600.0,4084.10009765625,,4201.5400390625,4226.669921875,4215.3798828125,4293.330078125,4629.740234375,4377.9501953125,0
98,4323.080078125,,4289.740234375,4151.7900390625,4345.1298828125,4596.919921875,4083.080078125,4613.85009765625,4211.27978515625,,4224.10009765625,,4635.89990234375,4378.97021484375,0
99,,4008.2099609375,4281.02978515625,,4334.35986328125,4602.0498046875,4084.6201171875,4618.97021484375,4212.81982421875,4242.0498046875,4213.330078125,4289.740234375,4625.64013671875,,0
100,4296.41015625,,4274.8701171875,4131.7900390625,4331.7900390625,4603.080078125,4086.669921875,4622.0498046875,4209.22998046875,4228.72021484375,4204.10009765625,4280.0,4614.35986328125,4356.41015625,0
101,4305.64013671875,4003.080078125,4278.97021484375,4140.0,4346.14990234375,4600.0,4086.14990234375,4623.58984375,4207.18017578125,4231.27978515625,4207.18017578125,4284.10009765625,4617.9501953125,4358.4599609375,0
102,4318.4599609375,4005.1298828125,4281.5400390625,4143.080078125,4348.2099609375,4605.64013671875,,4624.10009765625,4207.18017578125,4231.27978515625,4211.7900390625,4288.72021484375,4623.080078125,4362.0498046875,0
103,4313.330078125,,,4136.919921875,4338.4599609375,4609.740234375,,4631.27978515625,4214.35986328125,,4211.7900390625,4288.72021484375,4624.6201171875,4370.77001953125,0
104,4305.1298828125,4004.10009765625,4278.97021484375,4137.43994140625,,4602.56005859375,4087.68994140625,4635.89990234375,4220.0,4235.3798828125,4218.4599609375,4291.7900390625,4630.77001953125,4377.9501953125,0
105,4306.669921875,4008.2099609375,4276.919921875,4142.0498046875,,4602.0498046875,4084.10009765625,4631.7900390625,4218.97021484375,4237.43994140625,4225.1298828125,4293.330078125,4631.7900390625,4371.7900390625,0
106,4309.22998046875,4004.6201171875,4264.6201171875,4136.919921875,4338.97021484375,4608.72021484375,4085.1298828125,4629.22998046875,4215.89990234375,4230.259765625,4217.9501953125,,,4361.02978515625,0
107,4308.2099609375,4002.050048828125,4260.0,4130.259765625,4345.1298828125,4607.68994140625,4082.050048828125,,4208.2099609375,4231.27978515625,4210.77001953125,4278.4599609375,4617.43994140625,4362.56005859375,0
108,4304.6201171875,4001.5400390625,4260.0,4127.68994140625,4356.919921875,4604.6201171875,4080.510009765625,4616.919921875,4198.97021484375,4232.31005859375,4211.7900390625,4275.3798828125,4622.0498046875,4362.0498046875,0
109,4301.02978515625,4002.050048828125,4250.259765625,4123.080078125,4350.77001953125,4606.669921875,4085.1298828125,4614.8701171875,4196.41015625,4223.58984375,4210.259765625,4271.7900390625,4621.5400390625,4357.43994140625,0
110,4303.58984375,4005.639892578125,4250.259765625,4124.6201171875,4343.080078125,4607.18017578125,4082.56005859375,4620.509765625,4197.9501953125,4223.58984375,4208.2099609375,4272.81982421875,4616.41015625,4359.490234375,0
111,4305.64013671875,4007.68994140625,4261.5400390625,4134.35986328125,4352.81982421875,4606.14990234375,4078.4599609375,4624.10009765625,4200.509765625,4231.7900390625,4212.81982421875,4282.56005859375,4615.89990234375,4360.509765625,0
112,4300.509765625,4003.080078125,4258.4599609375,4131.27978515625,4352.31005859375,4606.14990234375,4076.409912109375,4624.10009765625,4206.14990234375,4233.330078125,4212.31005859375,4283.58984375,4614.35986328125,4352.31005859375,0
113,,3997.43994140625,4245.1298828125,4118.97021484375,4335.3798828125,4602.56005859375,4075.3798828125,4620.0,4204.10009765625,4225.64013671875,4203.58984375,4270.77001953125,4609.22998046875,4345.64013671875,0
114,4298.4599609375,3998.4599609375,4244.10009765625,4120.0,,4600.0,,4612.31005859375,4193.330078125,4220.0,4202.56005859375,4265.1298828125,4607.68994140625,4352.31005859375,0
115,4304.6201171875,4004.10009765625,4253.330078125,4125.1298828125,4345.64013671875,4601.5400390625,4080.510009765625,4610.77001953125,4192.31005859375,4224.10009765625,4208.72021484375,4273.330078125,4611.27978515625,4361.5400390625,0
116,4305.64013671875,4002.050048828125,4260.509765625,,4343.58984375,4603.58984375,4085.1298828125,4618.4599609375,4195.3798828125,4219.490234375,4209.740234375,4279.490234375,,4360.509765625,0
117,4301.5400390625,3998.969970703125,4262.56005859375,4118.97021484375,4337.43994140625,4603.58984375,4082.050048828125,4619.490234375,4195.3798828125,4218.97021484375,4211.27978515625,,4614.8701171875,4355.89990234375,0
118,4300.0,4005.1298828125,4262.0498046875,,4341.02978515625,4599.490234375,4078.4599609375,4614.35986328125,4202.0498046875,4235.3798828125,4218.4599609375,4289.22998046875,,4362.0498046875,0
119,4304.6201171875,4009.739990234375,4263.58984375,4124.6201171875,4349.22998046875,4599.490234375,4084.6201171875,4620.0,4209.740234375,4243.080078125,4223.080078125,,4628.2099609375,4369.22998046875,0
120,4312.31005859375,4005.1298828125,4268.72021484375,4123.58984375,4349.740234375,4606.669921875,,4629.22998046875,,4236.41015625,4223.58984375,4290.77001953125,4627.18017578125,4368.72021484375,0
121,4315.3798828125,4003.080078125,4272.31005859375,4123.080078125,4345.1298828125,4611.7900390625,4092.820068359375,4629.740234375,4213.85009765625,4242.0498046875,4225.1298828125,4295.89990234375,4632.81982421875,4372.31005859375,0
122,4309.740234375,4005.1298828125,4269.22998046875,4121.5400390625,4344.6201171875,4607.18017578125,4088.719970703125,4628.72021484375,4221.02978515625,4245.1298828125,4224.10009765625,4291.7900390625,4632.31005859375,4375.3798828125,0
123,,,4261.02978515625,4117.9501953125,4345.64013671875,4601.02978515625,4087.179931640625,4624.6201171875,4209.22998046875,4231.7900390625,4215.89990234375,4283.080078125,4623.080078125,4367.68994140625,0
124,4300.0,4001.5400390625,4262.0498046875,4121.02978515625,4342.56005859375,4600.509765625,4085.1298828125,4618.97021484375,4200.509765625,4228.72021484375,4209.22998046875,4284.10009765625,4616.919921875,4357.9501953125,0
125,4305.64013671875,4007.179931640625,4265.64013671875,4126.14990234375,4341.5400390625,4603.080078125,4088.2099609375,4620.0,4202.0498046875,4231.7900390625,4211.27978515625,4286.14990234375,,4356.41015625,0
126,,4004.10009765625,4255.3798828125,4117.9501953125,4337.9501953125,4602.0498046875,4089.739990234375,4620.509765625,4197.9501953125,4220.509765625,4209.740234375,4278.97021484375,4610.259765625,4354.35986328125,0
127,4287.18017578125,3992.31005859375,4245.1298828125,4105.64013671875,,4600.509765625,4087.179931640625,4618.97021484375,4201.02978515625,4214.8701171875,,4272.31005859375,4605.1298828125,,0
128,,3993.85009765625,4246.669921875,4110.77001953125,4332.81982421875,4604.10009765625,4086.669921875,4625.64013671875,4212.31005859375,4228.72021484375,4206.669921875,4277.43994140625,4609.22998046875,4358.97021484375,0
129,4295.3798828125,4007.179931640625,4250.259765625,4117.9501953125,4345.1298828125,4606.14990234375,4085.1298828125,4627.18017578125,4208.2099609375,4237.43994140625,4215.89990234375,4284.6201171875,4618.4599609375,4365.1298828125,0
130,4302.56005859375,4009.22998046875,4252.31005859375,4116.919921875,4342.0498046875,4601.5400390625,4078.969970703125,4618.97021484375,4198.4599609375,4230.77001953125,4213.85009765625,4284.6201171875,4617.9501953125,4364.10009765625,0
131,4304.10009765625,4002.56005859375,4261.02978515625,4120.509765625,4334.35986328125,4597.9501953125,4074.8701171875,4618.4599609375,4202.56005859375,4225.64013671875,,4284.6201171875,4611.27978515625,4360.509765625,0
132,4302.56005859375,4003.590087890625,4265.64013671875,4118.4599609375,4342.0498046875,4601.5400390625,4079.489990234375,4623.58984375,4207.68994140625,,,4288.72021484375,4614.8701171875,4364.10009765625,0
133,4303.58984375,4007.68994140625,,4110.259765625,4343.080078125,4604.6201171875,4084.6201171875,4622.0498046875,4206.669921875,4228.72021484375,4219.490234375,4289.22998046875,,4367.18017578125,0
134,4299.490234375,4005.1298828125,4250.77001953125,4114.35986328125,4330.259765625,4601.02978515625,4084.10009765625,4614.35986328125,4199.490234375,4231.27978515625,4213.330078125,4288.2099609375,4618.97021484375,4360.509765625,0
135,4288.2099609375,3996.919921875,,4120.0,4328.72021484375,4597.43994140625,4077.949951171875,4607.18017578125,4191.7900390625,4226.14990234375,4204.10009765625,,4606.14990234375,4349.22998046875,0
136,4286.14990234375,3991.7900390625,,4110.259765625,4333.330078125,4596.41015625,,4605.64013671875,4192.81982421875,,,4274.35986328125,4601.5400390625,4347.18017578125,0
137,4291.7900390625,3991.280029296875,4232.31005859375,4102.0498046875,4330.259765625,4597.9501953125,4078.4599609375,4613.330078125,4201.5400390625,4220.0,4204.10009765625,4272.81982421875,,4355.89990234375,0
138,,3991.280029296875,,4104.6201171875,4326.669921875,,4087.68994140625,4629.740234375,4212.81982421875,4230.259765625,4209.22998046875,4276.41015625,4615.3798828125,4353.85009765625,0
139,,,4230.77001953125,4101.02978515625,4327.18017578125,4602.0498046875,4091.280029296875,4640.0,4218.4599609375,4236.41015625,,4273.330078125,4610.77001953125,4344.10009765625,0
140,4293.85009765625,3994.8701171875,4229.22998046875,4102.0498046875,4328.72021484375,4598.4599609375,4083.590087890625,4629.22998046875,4212.31005859375,4235.3798828125,4206.14990234375,4273.85009765625,4607.68994140625,4348.72021484375,0
141,4297.9501953125,4001.5400390625,,4115.3798828125,4332.31005859375,4592.81982421875,4073.330078125,4611.27978515625,4196.919921875,4228.72021484375,4206.14990234375,4279.490234375,,4357.43994140625,0
142,4292.81982421875,3996.409912109375,4241.02978515625,4116.919921875,4332.81982421875,4590.77001953125,,4607.68994140625,4189.22998046875,4223.58984375,4209.22998046875,4277.9501953125,4610.259765625,4354.35986328125,0
143,4289.740234375,3992.820068359375,4235.3798828125,4107.68994140625,4328.2099609375,4593.330078125,4069.22998046875,4610.77001953125,4191.27978515625,4215.3798828125,4204.10009765625,4271.7900390625,4603.080078125,,0
144,4295.89990234375,4001.5400390625,4232.81982421875,4106.14990234375,4329.22998046875,4592.81982421875,4065.639892578125,4609.22998046875,4192.81982421875,4211.27978515625,,4278.4599609375,4604.10009765625,4352.31005859375,0
145,4303.080078125,4007.68994140625,4235.89990234375,4112.31005859375,4330.77001953125,4589.740234375,4065.1298828125,,4193.330078125,4217.9501953125,4203.080078125,4286.14990234375,4608.2099609375,4357.43994140625,0
146,4301.5400390625,4003.080078125,4236.41015625,4110.77001953125,4327.68994140625,4592.81982421875,4076.919921875,4618.97021484375,4195.3798828125,,4207.18017578125,4279.490234375,4602.56005859375,4355.3798828125,0
147,4295.89990234375,,4231.7900390625,4106.14990234375,4325.1298828125,4599.490234375,4081.030029296875,4620.0,4196.919921875,4214.35986328125,4202.0498046875,4274.35986328125,4598.97021484375,4351.7900390625,0
148,,4007.68994140625,4232.81982421875,4109.740234375,4326.669921875,4598.97021484375,4072.31005859375,4611.7900390625,4195.89990234375,4221.02978515625,4203.58984375,4278.97021484375,4606.669921875,4358.97021484375,0
149,4318.4599609375,4020.0,4240.509765625,4116.41015625,4330.259765625,4598.97021484375,4072.31005859375,4610.77001953125,4199.490234375,4226.669921875,4207.68994140625,4282.56005859375,4606.14990234375,,0
150,4335.89990234375,4029.22998046875,4245.1298828125,4120.0,4330.259765625,4602.0498046875,4077.949951171875,4618.97021484375,4207.68994140625,4221.5400390625,4205.64013671875,4283.080078125,4603.58984375,4383.58984375,0
151,4351.7900390625,4044.6201171875,4250.77001953125,4130.259765625,4332.81982421875,4594.35986328125,4070.260009765625,4615.89990234375,4201.5400390625,4218.97021484375,4208.2099609375,4286.14990234375,4616.919921875,4395.3798828125,0
152,4375.3798828125,4072.820068359375,4263.080078125,4150.259765625,4337.9501953125,4582.56005859375,4056.919921875,4599.490234375,4185.1298828125,,4214.8701171875,4290.259765625,4628.2099609375,4412.31005859375,0
153,4401.5400390625,4090.260009765625,4267.18017578125,4156.41015625,4336.919921875,,4053.330078125,4598.97021484375,4188.72021484375,,4217.43994140625,4291.7900390625,4630.77001953125,4428.72021484375,0
154,4412.31005859375,4094.360107421875,4262.56005859375,4149.22998046875,4332.31005859375,4591.7900390625,4057.43994140625,4611.27978515625,4195.89990234375,4215.89990234375,,4292.81982421875,4638.4599609375,4437.43994140625,0
155,4416.919921875,4106.669921875,,4153.330078125,4334.8701171875,4589.22998046875,4062.56005859375,4604.6201171875,4180.0,4207.18017578125,4219.490234375,4292.81982421875,4643.080078125,,0
156,4430.259765625,4123.080078125,4268.2099609375,4156.919921875,,,4069.739990234375,4592.81982421875,4172.81982421875,4203.080078125,4217.9501953125,,4642.0498046875,4452.31005859375,0
157,4447.18017578125,4124.6201171875,4277.43994140625,4154.35986328125,,4597.43994140625,4073.330078125,4597.9501953125,4183.080078125,4209.22998046875,4220.509765625,4307.18017578125,4649.22998046875,4467.68994140625,0
158,4454.35986328125,4124.10009765625,4280.509765625,4160.0,4328.72021484375,,4067.179931640625,4600.0,4181.02978515625,4209.740234375,4225.64013671875,4309.740234375,4659.490234375,4477.9501953125,0
159,4458.4599609375,4138.97021484375,4282.0498046875,,4330.77001953125,4583.58984375,4062.56005859375,4597.9501953125,4182.0498046875,4208.72021484375,4232.31005859375,4312.81982421875,4668.2099609375,,0
160,4472.31005859375,4154.8701171875,4291.7900390625,4174.8701171875,4336.919921875,,4070.260009765625,4611.27978515625,4202.0498046875,4225.1298828125,,4322.0498046875,4681.5400390625,,0
161,4480.0,4156.919921875,4297.43994140625,4182.56005859375,4341.02978515625,4589.740234375,4073.85009765625,4623.080078125,4209.740234375,4240.0,4258.97021484375,4329.740234375,4695.89990234375,,0
162,4474.8701171875,4152.81982421875,4291.7900390625,4185.64013671875,4340.0,4587.18017578125,4068.719970703125,,,4235.89990234375,4259.490234375,,4700.509765625,4501.02978515625,0
163,,4155.3798828125,4294.35986328125,4184.6201171875,4341.02978515625,4587.18017578125,4070.260009765625,4613.330078125,4198.4599609375,4229.740234375,4254.8701171875,4331.7900390625,4697.43994140625,4500.0,0
164,4484.6201171875,4155.89990234375,,,4341.5400390625,4589.740234375,4076.409912109375,4603.58984375,4186.669921875,4230.259765625,4257.43994140625,,4700.509765625,4505.1298828125,0
165,4483.58984375,4150.77001953125,4294.35986328125,4176.919921875,4342.56005859375,,4073.85009765625,4593.330078125,4183.080078125,,4264.6201171875,4335.89990234375,4714.8701171875,4514.35986328125,0
166,4487.68994140625,4153.330078125,4298.97021484375,4178.97021484375,4348.72021484375,4599.490234375,4069.739990234375,4591.27978515625,,4234.8701171875,4268.72021484375,4337.9501953125,4728.2099609375,4521.5400390625,0
167,4490.77001953125,4153.85009765625,4309.740234375,4182.0498046875,4347.68994140625,4600.0,4071.280029296875,4589.22998046875,4176.41015625,4233.330078125,4269.22998046875,4340.0,4729.22998046875,4518.97021484375,0
168,4481.5400390625,4140.509765625,4309.740234375,4174.8701171875,4336.41015625,4590.77001953125,4070.77001953125,4584.6201171875,4173.330078125,,4273.330078125,4341.5400390625,4731.27978515625,4520.509765625,0
169,4482.56005859375,4132.31005859375,4308.2099609375,4168.72021484375,4330.77001953125,4583.58984375,,4588.72021484375,4185.1298828125,4237.9501953125,,4349.22998046875,4744.6201171875,4535.3798828125,0
170,4487.68994140625,4133.330078125,,4168.2099609375,4335.3798828125,4586.14990234375,4073.85009765625,4596.919921875,4192.81982421875,4247.18017578125,4287.18017578125,4353.330078125,4753.85009765625,,0
171,,4129.740234375,4308.72021484375,4168.72021484375,4335.89990234375,4587.18017578125,4077.43994140625,4594.8701171875,4186.14990234375,4243.080078125,4283.080078125,4347.18017578125,4748.72021484375,4524.6201171875,0
172,,4117.9501953125,4306.14990234375,4165.1298828125,4327.68994140625,4582.0498046875,4074.360107421875,4593.330078125,,4230.77001953125,4276.41015625,4343.080078125,4746.14990234375,4527.18017578125,0
173,4475.89990234375,4106.14990234375,4304.10009765625,4156.41015625,4325.64013671875,4584.6201171875,4070.77001953125,4595.3798828125,4182.56005859375,,,4341.5400390625,4746.14990234375,4528.72021484375,0
174,4471.27978515625,4104.10009765625,4303.58984375,4151.7900390625,4332.81982421875,4591.27978515625,4068.2099609375,,4176.919921875,4224.6201171875,4273.330078125,4341.02978515625,4751.27978515625,4534.35986328125,0
175,4484.10009765625,4109.740234375,4308.2099609375,4157.43994140625,4336.41015625,4584.6201171875,4066.669921875,4581.02978515625,4181.5400390625,4243.080078125,4296.41015625,4351.27978515625,4781.5400390625,4560.0,0
176,4493.85009765625,4103.58984375,4314.35986328125,4158.97021484375,4330.259765625,,4070.260009765625,,4199.490234375,4262.56005859375,4313.85009765625,,4806.14990234375,4573.330078125,0
177,4479.490234375,4085.639892578125,4310.77001953125,4153.85009765625,4324.6201171875,4580.509765625,4076.919921875,4601.5400390625,4204.10009765625,4263.080078125,4306.669921875,4361.02978515625,4793.85009765625,4554.35986328125,0
178,4463.58984375,4072.820068359375,4300.509765625,4147.18017578125,4324.6201171875,4587.18017578125,4077.949951171875,4598.4599609375,4197.43994140625,4251.7900390625,4297.43994140625,4351.7900390625,,4545.64013671875,0
179,,4063.080078125,4297.9501953125,4142.0498046875,4324.6201171875,4587.18017578125,4075.89990234375,4605.1298828125,4209.22998046875,4253.330078125,4302.56005859375,4355.89990234375,4786.14990234375,4555.89990234375,0
180,4457.43994140625,4050.77001953125,4299.490234375,4134.35986328125,4323.080078125,4585.64013671875,4072.820068359375,4618.97021484375,4217.9501953125,4258.4599609375,4299.490234375,4358.97021484375,4781.5400390625,4548.2099609375,0
181,4450.77001953125,4045.1298828125,4289.740234375,4124.10009765625,4319.490234375,4586.14990234375,4067.68994140625,4614.8701171875,4206.14990234375,4255.89990234375,4290.77001953125,4348.2099609375,4774.8701171875,4537.43994140625,0
182,,4042.56005859375,4275.3798828125,4125.64013671875,4320.0,4586.14990234375,4066.14990234375,4608.72021484375,4202.0498046875,4253.330078125,4294.8701171875,4339.490234375,4785.64013671875,4542.0498046875,0
183,4454.8701171875,4039.489990234375,4281.02978515625,4134.35986328125,4326.669921875,4587.18017578125,4069.22998046875,4613.85009765625,4204.10009765625,4257.9501953125,4305.64013671875,4345.64013671875,4796.919921875,4551.7900390625,0
184,4465.1298828125,,4298.4599609375,4138.4599609375,4331.7900390625,4591.7900390625,4070.77001953125,4612.81982421875,4203.58984375,4270.259765625,4318.97021484375,4358.4599609375,4814.35986328125,4566.14990234375,0
185,4468.2099609375,4044.6201171875,4305.1298828125,4138.4599609375,4332.81982421875,4593.330078125,4070.260009765625,4605.1298828125,4210.77001953125,4279.490234375,,4367.68994140625,4833.85009765625,4571.7900390625,0
186,4461.02978515625,4041.030029296875,4300.0,4137.9501953125,4332.31005859375,4592.31005859375,4073.85009765625,4607.18017578125,4222.0498046875,,4325.64013671875,4365.1298828125,4826.669921875,4558.4599609375,0
187,4452.81982421875,,4295.3798828125,4130.259765625,,4592.31005859375,4078.4599609375,4620.0,4227.18017578125,4268.72021484375,4312.31005859375,4353.330078125,4808.2099609375,4549.22998046875,0
188,4445.1298828125,4017.949951171875,4292.81982421875,4121.5400390625,4325.1298828125,4591.7900390625,4077.43994140625,4628.72021484375,4229.22998046875,4273.330078125,4316.919921875,4350.77001953125,4810.259765625,4552.81982421875,1
189,4438.4599609375,4005.639892578125,4287.68994140625,4120.509765625,4321.02978515625,4589.740234375,4070.77001953125,4628.2099609375,4224.10009765625,,4319.490234375,4356.41015625,4811.27978515625,4546.669921875,1
190,4432.31005859375,3998.4599609375,4281.5400390625,4115.3798828125,4314.8701171875,,,4621.02978515625,4204.10009765625,4255.3798828125,4304.10009765625,4351.27978515625,,4533.85009765625,1
191,4427.18017578125,3990.260009765625,4281.02978515625,4107.18017578125,4310.77001953125,4574.8701171875,4061.030029296875,4608.2099609375,4188.2099609375,4238.97021484375,4297.43994140625,4343.080078125,4783.58984375,4530.77001953125,1
192,4426.669921875,3987.68994140625,4285.1298828125,4108.2099609375,4314.35986328125,4575.89990234375,4063.590087890625,4594.8701171875,4181.5400390625,4235.3798828125,4301.5400390625,,4784.10009765625,4533.330078125,1
193,4427.68994140625,3988.2099609375,4284.6201171875,4114.35986328125,4316.41015625,4581.5400390625,4069.739990234375,4588.72021484375,4180.509765625,,4303.080078125,4348.2099609375,4793.85009765625,4533.330078125,1
194,4419.490234375,3983.080078125,4280.509765625,4111.7900390625,4313.85009765625,4581.02978515625,4072.820068359375,4595.89990234375,4196.919921875,4250.77001953125,4307.18017578125,,4799.490234375,4528.72021484375,1
195,4412.81982421875,3982.050048828125,4278.97021484375,4108.2099609375,4314.8701171875,,4073.330078125,4617.9501953125,4228.72021484375,4263.58984375,4312.31005859375,4346.14990234375,4796.919921875,4526.14990234375,1
196,4411.27978515625,3977.43994140625,,4109.740234375,4317.9501953125,4584.6201171875,4078.4599609375,4637.9501953125,4242.56005859375,4271.27978515625,4310.77001953125,4343.080078125,4798.97021484375,4522.0498046875,1
197,4403.58984375,3964.6201171875,4278.97021484375,4106.669921875,4322.56005859375,4594.35986328125,4085.1298828125,4637.9501953125,,4274.8701171875,4308.2099609375,4338.97021484375,4801.5400390625,4512.81982421875,1
198,,3965.1298828125,4274.35986328125,4106.669921875,4327.18017578125,4601.02978515625,4086.14990234375,,4236.919921875,4278.97021484375,4307.68994140625,4340.509765625,4791.7900390625,4504.10009765625,1
199,,3973.85009765625,4267.18017578125,4111.7900390625,4327.18017578125,4602.56005859375,4080.510009765625,,4241.02978515625,4276.41015625,4305.1298828125,4341.5400390625,4786.14990234375,4500.0,1
200,4388.72021484375,3968.719970703125,4261.5400390625,4107.18017578125,4322.56005859375,,4074.8701171875,4629.740234375,4228.72021484375,4269.740234375,4304.10009765625,4338.97021484375,4791.7900390625,4502.56005859375,1
201,4379.490234375,3953.330078125,4264.10009765625,4094.360107421875,4318.97021484375,4593.330078125,4072.820068359375,4617.43994140625,4217.9501953125,4268.72021484375,,4335.3798828125,4788.2099609375,4496.919921875,1
202,4371.7900390625,3944.6201171875,4262.0498046875,4089.22998046875,,4588.2099609375,4072.31005859375,4618.4599609375,4223.58984375,,,4330.259765625,4778.4599609375,4480.509765625,1
203,4366.14990234375,3940.510009765625,4251.7900390625,4086.669921875,4311.27978515625,4587.68994140625,4075.89990234375,4625.1298828125,,4262.0498046875,4293.85009765625,4326.669921875,4774.35986328125,4477.43994140625,1
204,4362.56005859375,3934.8701171875,4250.259765625,4080.0,4310.259765625,,4081.5400390625,4631.27978515625,4230.259765625,4262.56005859375,4295.89990234375,4329.22998046875,4768.72021484375,4484.10009765625,1
205,4363.080078125,3934.8701171875,4261.02978515625,4078.4599609375,4319.490234375,4593.330078125,4084.6201171875,4635.89990234375,4235.3798828125,4266.14990234375,4300.0,4337.9501953125,,,1
206,4366.669921875,3941.5400390625,4263.080078125,,4326.669921875,4591.7900390625,4081.030029296875,4635.89990234375,4235.89990234375,4269.22998046875,4301.5400390625,4340.0,4773.330078125,4478.4599609375,1
207,4361.5400390625,3934.8701171875,4250.259765625,4080.510009765625,4321.5400390625,4588.72021484375,4082.050048828125,4633.85009765625,,4263.58984375,4292.81982421875,4329.22998046875,4769.740234375,4467.68994140625,1
208,4348.2099609375,3919.489990234375,4244.6201171875,4066.669921875,4317.9501953125,4587.18017578125,4090.260009765625,4631.27978515625,4221.02978515625,4255.89990234375,4286.14990234375,4323.58984375,4755.89990234375,4460.509765625,1
209,4347.68994140625,3922.050048828125,4249.740234375,4064.6201171875,4322.56005859375,4587.68994140625,4090.77001953125,4627.68994140625,4227.68994140625,4266.669921875,4293.85009765625,4331.7900390625,4759.490234375,4472.81982421875,1
210,4354.8701171875,3929.22998046875,,4073.85009765625,4325.1298828125,4586.669921875,4086.14990234375,4625.64013671875,4227.68994140625,4277.43994140625,4303.58984375,4335.89990234375,4766.669921875,4477.9501953125,1
211,4350.259765625,3925.639892578125,4247.18017578125,4072.820068359375,4325.64013671875,4591.7900390625,4086.669921875,4630.77001953125,4231.7900390625,4275.3798828125,4304.10009765625,4331.7900390625,4763.58984375,,1
212,,3926.14990234375,4252.81982421875,4066.669921875,4325.64013671875,4598.4599609375,,4642.56005859375,4248.2099609375,4284.6201171875,4306.669921875,4337.9501953125,4769.740234375,4471.7900390625,1
213,4357.43994140625,3930.77001953125,4261.02978515625,4069.739990234375,4321.02978515625,4598.97021484375,4093.85009765625,4653.85009765625,,4294.8701171875,4311.7900390625,4345.64013671875,4775.3798828125,4479.490234375,1
214,4354.8701171875,3930.77001953125,,4069.22998046875,4318.4599609375,4600.509765625,4097.43994140625,,4251.27978515625,4285.64013671875,4309.22998046875,4339.490234375,4766.14990234375,4469.22998046875,1
215,,3927.179931640625,4258.4599609375,4065.1298828125,4325.64013671875,,4102.56005859375,4654.35986328125,4245.64013671875,4280.509765625,4304.10009765625,4333.330078125,4760.509765625,4461.5400390625,1
216,4345.1298828125,3926.14990234375,4262.0498046875,4072.31005859375,4331.27978515625,4610.77001953125,4107.18017578125,4651.27978515625,4248.72021484375,4286.669921875,4303.080078125,4335.89990234375,4760.0,4463.58984375,1
217,4348.72021484375,3926.14990234375,4256.41015625,4075.3798828125,4322.56005859375,4604.10009765625,,4650.259765625,4248.72021484375,4284.6201171875,4298.97021484375,,4752.31005859375,4460.509765625,1
218,4340.509765625,3921.5400390625,4253.85009765625,4064.6201171875,4313.330078125,4596.919921875,,4646.669921875,4239.490234375,4275.3798828125,4290.259765625,4326.669921875,4745.1298828125,4453.85009765625,1
219,4331.27978515625,,4255.3798828125,4061.030029296875,4316.41015625,4598.97021484375,4103.080078125,4644.10009765625,4230.77001953125,,4284.6201171875,4328.72021484375,4738.97021484375,4450.259765625,1
220,4327.68994140625,3911.7900390625,4248.2099609375,4065.1298828125,4321.5400390625,4606.14990234375,4103.080078125,4650.259765625,4243.58984375,4271.7900390625,4287.18017578125,4329.740234375,4735.89990234375,4446.669921875,1
221,4322.56005859375,3910.260009765625,4243.080078125,4062.56005859375,,4607.18017578125,4104.10009765625,4660.509765625,,4282.0498046875,4292.31005859375,4327.18017578125,4743.58984375,4442.56005859375,1
222,4315.89990234375,3907.68994140625,4246.14990234375,4058.4599609375,4317.43994140625,4603.080078125,4103.080078125,4661.5400390625,,4287.18017578125,4291.7900390625,4328.72021484375,4744.6201171875,4439.490234375,1
223,4312.81982421875,3906.14990234375,4247.18017578125,4058.969970703125,4316.41015625,4602.56005859375,4101.02978515625,4649.22998046875,4238.4599609375,4278.4599609375,4286.669921875,4328.2099609375,4733.330078125,4437.43994140625,1
224,4312.31005859375,3908.2099609375,4249.22998046875,4059.489990234375,4313.85009765625,4603.58984375,,4639.490234375,4231.27978515625,4267.68994140625,4284.10009765625,,4728.72021484375,,1
225,4313.85009765625,3908.2099609375,,4058.969970703125,4314.8701171875,4603.58984375,4101.02978515625,4648.72021484375,4243.080078125,4268.72021484375,4281.5400390625,4322.56005859375,,4433.85009765625,1
226,4316.41015625,3905.639892578125,4249.22998046875,4058.4599609375,4318.97021484375,4603.080078125,4106.14990234375,4656.919921875,4249.22998046875,,4281.02978515625,4323.58984375,4728.72021484375,4433.330078125,1
227,4317.9501953125,3912.820068359375,4248.2099609375,,4322.56005859375,4603.080078125,4101.5400390625,4648.2099609375,4241.02978515625,4275.89990234375,4284.10009765625,4318.97021484375,,4435.3798828125,1
228,4318.4599609375,3917.949951171875,4250.259765625,4065.639892578125,4323.080078125,4604.6201171875,4098.4599609375,4650.259765625,4240.509765625,4270.77001953125,4280.0,4313.85009765625,,4432.81982421875,1
229,4316.919921875,3908.719970703125,4253.330078125,4062.56005859375,4324.6201171875,4605.64013671875,4105.1298828125,4657.43994140625,4244.10009765625,4269.22998046875,4270.77001953125,4316.919921875,4722.0498046875,4427.18017578125,1
230,4317.9501953125,3913.330078125,4253.330078125,4067.179931640625,4328.2099609375,,,4647.18017578125,4234.8701171875,4266.14990234375,4270.77001953125,4322.0498046875,4712.81982421875,4425.64013671875,1
231,4321.02978515625,3934.360107421875,4250.77001953125,4075.89990234375,,4607.18017578125,,4637.9501953125,4227.18017578125,4262.56005859375,4271.27978515625,4321.5400390625,4707.68994140625,4422.0498046875,1
232,4317.43994140625,3938.4599609375,4248.72021484375,4072.820068359375,4322.0498046875,4607.18017578125,4098.4599609375,4645.64013671875,4234.8701171875,4256.41015625,4256.919921875,4316.919921875,4694.35986328125,4409.22998046875,1
233,4308.2099609375,,4249.22998046875,4071.7900390625,4324.6201171875,4606.14990234375,4102.56005859375,4650.259765625,,4252.81982421875,4250.259765625,4309.22998046875,,4399.490234375,1
234,,3943.080078125,4251.27978515625,4083.590087890625,4329.740234375,4603.080078125,4097.9501953125,4643.080078125,4236.919921875,4258.4599609375,4258.4599609375,4304.10009765625,4680.0,4403.080078125,1
235,4313.330078125,3950.260009765625,4249.740234375,4084.6201171875,4327.68994140625,4601.02978515625,4092.820068359375,4636.919921875,4234.8701171875,4261.02978515625,4257.9501953125,4304.6201171875,4685.64013671875,4397.9501953125,1
236,4301.02978515625,3937.949951171875,4243.58984375,4074.360107421875,4324.10009765625,4602.56005859375,4092.820068359375,4631.7900390625,4223.080078125,4248.2099609375,4246.14990234375,4302.56005859375,4676.919921875,4383.58984375,1
237,4287.18017578125,3926.14990234375,4241.02978515625,4071.7900390625,,4602.56005859375,4089.739990234375,4626.669921875,4212.31005859375,,4238.4599609375,,4666.14990234375,4382.56005859375,1
238,4288.72021484375,3929.22998046875,4245.64013671875,4075.89990234375,4331.7900390625,4603.080078125,4087.179931640625,4629.740234375,4222.0498046875,4238.4599609375,4239.490234375,4299.490234375,4666.14990234375,4386.669921875,1
239,4298.4599609375,3938.969970703125,4245.64013671875,4080.510009765625,4331.27978515625,4606.669921875,4095.3798828125,4638.4599609375,4231.27978515625,4245.1298828125,4242.56005859375,4304.10009765625,4669.22998046875,4383.58984375,1
240,4297.9501953125,,4237.43994140625,4080.510009765625,,4606.669921875,4103.080078125,4639.490234375,4221.02978515625,4242.0498046875,4237.9501953125,4300.0,4665.64013671875,4375.3798828125,1
241,4289.740234375,3936.919921875,4236.41015625,4073.330078125,4326.14990234375,4604.6201171875,4100.509765625,4637.9501953125,4215.89990234375,4235.3798828125,,4295.3798828125,4657.9501953125,4372.81982421875,1
242,,3940.510009765625,4244.6201171875,4075.89990234375,4333.85009765625,4607.68994140625,4097.9501953125,4639.490234375,4223.080078125,4242.56005859375,4244.6201171875,4303.080078125,4664.10009765625,4387.18017578125,1
243,4307.68994140625,3947.179931640625,4249.740234375,4088.2099609375,4337.9501953125,4609.740234375,4094.8701171875,4638.4599609375,,4257.43994140625,,,4682.56005859375,4398.4599609375,1
244,4303.080078125,3942.050048828125,4246.14990234375,4087.179931640625,4330.259765625,4605.64013671875,4090.260009765625,4639.490234375,4233.85009765625,,4258.4599609375,4309.740234375,4686.14990234375,,1
245,4292.31005859375,,4239.490234375,4075.89990234375,4323.58984375,4602.56005859375,4088.719970703125,4639.490234375,4227.68994140625,4257.9501953125,4251.7900390625,4304.6201171875,,4379.490234375,1
246,4292.31005859375,3933.85009765625,4239.490234375,4073.330078125,4326.669921875,,4089.22998046875,4629.22998046875,4211.27978515625,,4251.27978515625,4304.6201171875,4667.18017578125,4381.02978515625,1
247,4292.31005859375,3934.8701171875,4243.080078125,4076.919921875,4331.7900390625,4607.18017578125,4089.22998046875,,,4247.18017578125,4252.81982421875,4302.56005859375,4675.89990234375,4385.64013671875,1
248,4291.7900390625,3933.330078125,4243.58984375,4077.949951171875,4332.81982421875,4616.919921875,,4631.27978515625,4226.669921875,4251.27978515625,4252.81982421875,,4677.9501953125,4384.10009765625,1
249,4290.259765625,3931.280029296875,4236.919921875,4074.8701171875,4328.72021484375,4615.3798828125,4095.3798828125,4638.97021484375,4230.259765625,,4243.080078125,4300.0,4665.1298828125,4376.41015625,1
250,,3930.260009765625,,4075.3798828125,4328.2099609375,4601.02978515625,4086.14990234375,4632.31005859375,4219.490234375,4243.58984375,4235.89990234375,4295.3798828125,4659.490234375,4375.3798828125,1
251,4289.740234375,,,,4336.41015625,4599.490234375,4083.590087890625,4626.669921875,4218.97021484375,4249.22998046875,4247.68994140625,4299.490234375,4670.259765625,4385.1298828125,1
252,4301.5400390625,3946.669921875,4248.72021484375,4092.31005859375,4335.89990234375,4608.72021484375,4089.22998046875,4633.85009765625,4225.64013671875,4253.85009765625,4255.89990234375,,4675.89990234375,4388.72021484375,1
253,4298.4599609375,3935.3798828125,4250.259765625,,4324.6201171875,4607.18017578125,4092.820068359375,4642.56005859375,4226.669921875,4250.77001953125,4247.18017578125,,,4378.4599609375,1
254,4284.6201171875,3922.56005859375,4238.4599609375,4070.260009765625,4316.41015625,4600.0,4088.719970703125,4638.4599609375,4222.56005859375,4244.6201171875,4235.3798828125,4298.4599609375,4654.35986328125,4367.18017578125,1
255,4280.0,3927.179931640625,4230.77001953125,4075.89990234375,4314.8701171875,4602.0498046875,,4630.259765625,4220.0,4236.919921875,4229.740234375,,4650.77001953125,4362.0498046875,1
256,4283.58984375,3934.8701171875,4235.3798828125,4078.969970703125,4321.5400390625,4608.2099609375,4094.360107421875,,4219.490234375,4236.41015625,4230.259765625,4287.68994140625,4651.27978515625,4363.080078125,1
257,,3937.43994140625,4245.64013671875,4085.639892578125,4330.77001953125,4608.72021484375,4105.1298828125,4634.8701171875,4223.080078125,4244.10009765625,4236.41015625,4300.0,4656.919921875,4367.18017578125,1
258,4287.18017578125,3939.489990234375,4250.259765625,4091.280029296875,4331.7900390625,4607.18017578125,4102.56005859375,4636.919921875,,4251.7900390625,4241.5400390625,4310.259765625,4664.6201171875,4375.89990234375,1
259,4291.27978515625,3943.590087890625,,4088.719970703125,4330.77001953125,4612.81982421875,4103.58984375,4641.02978515625,4228.72021484375,4253.85009765625,4245.64013671875,4310.77001953125,4668.72021484375,4380.0,1
260,4287.18017578125,3946.14990234375,,4087.68994140625,4333.85009765625,4618.4599609375,4113.330078125,4644.6201171875,4226.669921875,4253.330078125,4252.31005859375,4306.14990234375,4667.68994140625,4374.35986328125,1
261,4284.10009765625,3945.1298828125,4247.68994140625,,4332.81982421875,4613.85009765625,4108.72021484375,4642.0498046875,,4254.8701171875,4250.259765625,4302.0498046875,4667.68994140625,4369.22998046875,1
262,4291.27978515625,3946.669921875,,,4330.259765625,4609.22998046875,4100.509765625,4639.490234375,4230.259765625,4254.35986328125,4244.10009765625,4302.56005859375,4667.18017578125,4372.81982421875,1
263,4289.740234375,3947.179931640625,4249.22998046875,4094.360107421875,4328.72021484375,4608.2099609375,4100.509765625,,4224.10009765625,4252.81982421875,4247.18017578125,,4663.58984375,4374.35986328125,1
264,,3941.5400390625,4246.669921875,,4321.5400390625,4603.080078125,4094.8701171875,4632.81982421875,4212.81982421875,,4241.5400390625,4307.18017578125,4654.8701171875,4363.080078125,1
265,4275.3798828125,3937.949951171875,4237.43994140625,4079.489990234375,4316.919921875,4599.490234375,4091.280029296875,4627.18017578125,4214.8701171875,4233.85009765625,4224.10009765625,4292.81982421875,4643.58984375,4354.8701171875,1
266,4279.490234375,3937.949951171875,4237.9501953125,4086.14990234375,,4602.0498046875,4096.919921875,4631.7900390625,,4231.27978515625,4220.509765625,4288.72021484375,4643.080078125,4357.9501953125,1
267,4280.509765625,3939.489990234375,4247.68994140625,,4327.18017578125,,4100.0,4637.9501953125,4222.0498046875,4232.81982421875,4229.740234375,4295.89990234375,4647.18017578125,,1
268,4280.0,3941.030029296875,4248.2099609375,4085.1298828125,4324.6201171875,4612.81982421875,4096.919921875,4634.8701171875,4218.97021484375,,4232.81982421875,4296.919921875,4648.2099609375,4358.4599609375,1
269,4284.10009765625,,4246.14990234375,4085.639892578125,4326.669921875,4612.81982421875,4097.9501953125,4631.7900390625,4223.58984375,4248.72021484375,4238.4599609375,4298.4599609375,4653.85009765625,4369.22998046875,1
270,4286.14990234375,3936.919921875,4249.740234375,4087.68994140625,4327.18017578125,4609.22998046875,4101.02978515625,4631.7900390625,4226.669921875,,4245.64013671875,4306.669921875,4660.0,4371.7900390625,1
271,4278.4599609375,,4249.22998046875,,4324.10009765625,4607.68994140625,4103.080078125,4634.8701171875,4229.22998046875,4246.669921875,4242.0498046875,,,4358.97021484375,1
272,4272.81982421875,3933.85009765625,4244.6201171875,4085.639892578125,4326.669921875,4611.27978515625,4106.14990234375,4640.0,4229.22998046875,4241.5400390625,4232.81982421875,4299.490234375,4642.0498046875,4353.330078125,1
273,4277.9501953125,3933.330078125,,4085.1298828125,4330.259765625,4616.41015625,4107.68994140625,4643.080078125,4227.68994140625,4244.6201171875,4233.330078125,4298.97021484375,4642.0498046875,4359.490234375,1
274,4280.509765625,3935.3798828125,4248.2099609375,4086.669921875,,4617.43994140625,4107.68994140625,4646.14990234375,4237.9501953125,4250.77001953125,,4303.58984375,4649.740234375,4364.6201171875,1
275,4276.919921875,3940.0,4247.68994140625,4088.719970703125,4331.7900390625,4616.41015625,4106.14990234375,4646.669921875,4243.58984375,4251.27978515625,4239.490234375,4303.080078125,4654.35986328125,4365.1298828125,1
276,4283.58984375,3944.6201171875,4248.72021484375,4093.85009765625,4332.31005859375,4613.330078125,,4633.85009765625,,4245.64013671875,4237.43994140625,4303.080078125,4651.27978515625,4365.64013671875,1
277,4292.31005859375,3951.280029296875,4255.89990234375,,4329.22998046875,4610.259765625,4091.280029296875,4622.0498046875,4205.64013671875,4243.080078125,4241.5400390625,4309.740234375,4653.330078125,4370.259765625,1
278,4290.259765625,3954.360107421875,4257.43994140625,4102.0498046875,,4610.259765625,4095.89990234375,4625.64013671875,4216.41015625,,4243.58984375,,4657.43994140625,4371.7900390625,1
279,4285.64013671875,3945.1298828125,4249.22998046875,4092.31005859375,4330.259765625,4610.259765625,4104.6201171875,4638.4599609375,4223.080078125,4236.919921875,4231.7900390625,,4648.72021484375,4363.58984375,1
280,4284.10009765625,3937.43994140625,4245.64013671875,4089.739990234375,4330.259765625,4613.330078125,4105.64013671875,4644.6201171875,4218.4599609375,4236.919921875,4221.5400390625,4299.490234375,4636.919921875,4358.4599609375,1
281,4282.56005859375,3937.43994140625,4249.22998046875,4091.7900390625,4329.22998046875,4618.4599609375,4103.080078125,4638.97021484375,4220.0,4235.3798828125,4223.080078125,4301.5400390625,4631.7900390625,4360.0,1
282,4284.6201171875,3944.6201171875,4253.330078125,4093.85009765625,4326.14990234375,4615.89990234375,4103.58984375,4632.31005859375,4224.6201171875,4233.330078125,4224.10009765625,4301.5400390625,4630.77001953125,4363.58984375,1
283,4297.43994140625,3956.919921875,4258.97021484375,4103.58984375,4331.27978515625,4614.8701171875,4103.080078125,4633.330078125,4223.080078125,4238.4599609375,4226.14990234375,4305.1298828125,,4376.41015625,1
284,4312.31005859375,3962.050048828125,4262.56005859375,4108.2099609375,4339.490234375,4621.5400390625,4103.58984375,4637.9501953125,4221.5400390625,4243.080078125,4234.8701171875,4312.81982421875,4655.3798828125,4392.81982421875,1
285,4324.6201171875,3966.14990234375,4268.72021484375,4104.6201171875,4338.97021484375,4620.509765625,4102.56005859375,4641.5400390625,4223.080078125,4242.56005859375,4244.10009765625,4317.9501953125,4663.080078125,4405.64013671875,1
286,,3975.89990234375,4280.0,4112.81982421875,4336.41015625,,4098.97021484375,4643.58984375,4221.02978515625,4247.18017578125,4253.85009765625,4325.1298828125,4672.31005859375,,1
287,4344.10009765625,3975.89990234375,4283.080078125,4121.02978515625,,4615.3798828125,,4634.35986328125,4213.85009765625,4249.22998046875,4258.97021484375,4331.27978515625,4678.97021484375,4418.4599609375,1
288,4341.5400390625,3970.77001953125,4278.97021484375,4113.330078125,4329.740234375,4613.85009765625,4103.58984375,4627.18017578125,4216.41015625,4243.080078125,4253.85009765625,4328.2099609375,4672.31005859375,4416.919921875,1
289,4344.6201171875,3980.0,4278.97021484375,4110.259765625,4328.72021484375,4611.7900390625,,4633.330078125,4224.10009765625,4237.9501953125,4245.1298828125,4325.1298828125,4669.740234375,4423.58984375,1
290,4355.3798828125,3984.6201171875,4279.490234375,4115.89990234375,4329.22998046875,,4089.22998046875,4634.35986328125,4216.919921875,4235.3798828125,4246.14990234375,4325.1298828125,4675.89990234375,4429.740234375,1
291,4358.4599609375,3977.949951171875,4278.4599609375,,4328.72021484375,4617.43994140625,4094.360107421875,,4209.740234375,4234.35986328125,4247.68994140625,,4671.7900390625,4424.6201171875,1
292,4356.41015625,3983.590087890625,,4115.3798828125,4333.85009765625,4616.919921875,4096.919921875,4622.56005859375,4217.43994140625,4236.41015625,4243.58984375,4314.35986328125,4665.64013671875,4422.0498046875,1
293,,3994.8701171875,4290.259765625,,,,4096.41015625,4628.72021484375,4216.41015625,4233.85009765625,4247.68994140625,4322.0498046875,4670.77001953125,4432.31005859375,1
294,4372.31005859375,3993.330078125,4297.9501953125,4135.3798828125,4330.77001953125,4602.0498046875,4100.509765625,4626.669921875,4197.9501953125,4227.18017578125,4252.31005859375,4331.7900390625,4673.330078125,4438.4599609375,1
295,4367.68994140625,3987.179931640625,4290.259765625,4125.1298828125,4330.77001953125,4607.68994140625,4106.14990234375,4621.5400390625,4191.7900390625,4223.58984375,4244.10009765625,,4667.18017578125,4432.81982421875,1
296,4362.0498046875,3986.669921875,4281.02978515625,4120.509765625,4337.9501953125,4617.9501953125,4106.14990234375,4622.56005859375,4204.6201171875,4222.56005859375,4235.89990234375,4321.5400390625,4663.58984375,4425.1298828125,1
297,4356.919921875,3978.969970703125,4276.919921875,4114.8701171875,4332.31005859375,4619.490234375,4104.10009765625,4626.669921875,4212.81982421875,4222.56005859375,4239.490234375,,4663.58984375,4418.4599609375,1
298,,3970.260009765625,4265.64013671875,4104.10009765625,4324.6201171875,4616.41015625,4102.56005859375,4627.68994140625,4210.77001953125,4228.72021484375,4240.509765625,,4666.669921875,4420.0,1
299,4356.919921875,,4266.14990234375,4108.72021484375,4335.3798828125,4617.9501953125,4100.0,4627.68994140625,4211.7900390625,4232.31005859375,4240.0,4320.509765625,4669.740234375,4428.2099609375,1
300,4365.1298828125,3988.2099609375,4278.97021484375,4120.509765625,4344.6201171875,4623.58984375,4101.5400390625,4628.2099609375,,4230.77001953125,,,4667.18017578125,4430.77001953125,1
301,4362.56005859375,3983.080078125,4273.330078125,4115.3798828125,4336.41015625,4624.6201171875,,4627.18017578125,4212.81982421875,4233.85009765625,4245.1298828125,4324.6201171875,4663.080078125,4421.02978515625,1
302,4358.4599609375,,4268.2099609375,4104.6201171875,4330.259765625,4615.89990234375,4103.080078125,4623.080078125,4205.1298828125,4235.89990234375,4244.6201171875,4322.0498046875,4663.080078125,4411.7900390625,1
303,4363.080078125,3981.030029296875,4276.919921875,,4333.85009765625,4608.2099609375,4097.43994140625,4614.35986328125,4194.35986328125,4230.259765625,4247.68994140625,4323.58984375,4667.18017578125,4418.4599609375,1
304,4366.669921875,3981.5400390625,4274.35986328125,4112.81982421875,4334.8701171875,4612.81982421875,4093.85009765625,4608.72021484375,4192.81982421875,4226.669921875,,4318.97021484375,4671.27978515625,4426.669921875,1
305,4355.3798828125,3976.409912109375,4261.02978515625,,4330.259765625,4620.0,4097.9501953125,4611.7900390625,4196.919921875,4226.669921875,4235.89990234375,,4663.080078125,4412.31005859375,1
306,4338.97021484375,3966.669921875,4251.7900390625,4090.260009765625,4326.14990234375,4624.6201171875,4102.0498046875,4614.35986328125,4195.89990234375,4221.02978515625,4224.10009765625,4296.919921875,4648.72021484375,4394.8701171875,1
307,,3962.56005859375,4249.22998046875,4087.68994140625,4325.64013671875,4628.72021484375,4104.6201171875,4618.97021484375,4202.0498046875,4218.97021484375,4225.64013671875,,4647.18017578125,4398.4599609375,1
308,4344.10009765625,3969.22998046875,,4094.8701171875,4330.259765625,4626.14990234375,4105.1298828125,4628.72021484375,4217.9501953125,4228.72021484375,4234.35986328125,4304.10009765625,4653.330078125,4405.64013671875,1
309,4345.1298828125,3976.409912109375,4264.6201171875,4099.490234375,4333.330078125,,4101.5400390625,4629.740234375,4219.490234375,4233.330078125,4238.4599609375,4308.72021484375,4653.85009765625,4408.2099609375,1
310,4350.259765625,3980.0,4264.10009765625,4104.10009765625,4335.3798828125,4624.10009765625,,4618.97021484375,4208.2099609375,4232.81982421875,4242.0498046875,4311.7900390625,4656.919921875,4415.3798828125,1
311,4354.35986328125,3982.56005859375,4266.14990234375,4108.2099609375,4337.43994140625,4625.1298828125,4100.509765625,4614.35986328125,4209.22998046875,4240.509765625,4248.72021484375,4314.35986328125,4665.64013671875,4418.4599609375,1
312,4347.18017578125,3975.3798828125,4266.669921875,4102.56005859375,,4617.9501953125,4097.43994140625,4612.81982421875,4210.77001953125,4240.509765625,4248.2099609375,4313.330078125,4664.10009765625,4411.7900390625,1
313,4343.080078125,3969.739990234375,4263.080078125,,4326.14990234375,4614.35986328125,4091.7900390625,4611.7900390625,4204.6201171875,4229.22998046875,4240.509765625,,4654.8701171875,4407.18017578125,1
314,4347.18017578125,3973.85009765625,4264.10009765625,4092.820068359375,,4616.919921875,4095.89990234375,4623.080078125,4209.740234375,4230.77001953125,4236.919921875,4314.8701171875,4652.31005859375,4409.22998046875,1
315,,3972.820068359375,4265.1298828125,4095.3798828125,4327.68994140625,4618.97021484375,4104.10009765625,,4215.89990234375,4236.41015625,,,,4407.18017578125,1
316,4343.58984375,3971.7900390625,4265.1298828125,,,4618.97021484375,,4626.14990234375,4205.64013671875,4227.68994140625,,4309.740234375,4654.35986328125,4403.080078125,1
317,4343.080078125,3973.85009765625,4265.64013671875,4092.31005859375,4323.58984375,4615.3798828125,4093.85009765625,4622.0498046875,4198.97021484375,4221.02978515625,4236.41015625,4309.740234375,,4407.18017578125,1
318,4344.10009765625,,4265.1298828125,,,4615.3798828125,4097.9501953125,4629.740234375,4207.68994140625,4226.669921875,4235.89990234375,4311.7900390625,4647.68994140625,4409.22998046875,1
319,4344.10009765625,3973.330078125,4264.10009765625,4100.509765625,4334.8701171875,4620.509765625,4103.080078125,4631.27978515625,4207.18017578125,4232.81982421875,4237.9501953125,,4650.77001953125,4407.68994140625,1
320,4341.5400390625,,4264.6201171875,4097.9501953125,4336.41015625,4623.58984375,4102.56005859375,,,4235.3798828125,4241.02978515625,4314.8701171875,4659.490234375,4411.7900390625,1
321,4335.3798828125,3972.31005859375,4263.58984375,,4332.81982421875,4626.14990234375,,4629.740234375,4217.43994140625,4238.97021484375,4242.0498046875,4311.7900390625,4657.9501953125,4410.77001953125,1
322,,3964.10009765625,4261.02978515625,4089.739990234375,4330.77001953125,4630.259765625,4111.27978515625,,4232.81982421875,4243.080078125,4242.0498046875,4309.740234375,4655.89990234375,4398.97021484375,1
323,,3967.68994140625,4260.509765625,4090.260009765625,4332.31005859375,4629.740234375,4115.3798828125,4641.02978515625,4226.669921875,4245.1298828125,4243.080078125,4311.7900390625,4661.5400390625,4398.4599609375,1
324,4337.9501953125,3975.3798828125,4264.6201171875,4099.490234375,4333.330078125,4627.18017578125,4113.330078125,4635.3798828125,4218.4599609375,4245.64013671875,4243.080078125,4316.919921875,4661.02978515625,4407.18017578125,1
325,4342.0498046875,,4270.259765625,4102.0498046875,4332.31005859375,4624.6201171875,4108.2099609375,4634.8701171875,4222.56005859375,4245.1298828125,4241.5400390625,4320.0,4653.85009765625,4404.6201171875,1
326,4335.89990234375,3968.2099609375,4268.2099609375,4094.360107421875,4328.72021484375,4618.97021484375,4106.669921875,4636.41015625,4220.0,4240.509765625,4238.4599609375,,4648.2099609375,4395.89990234375,1
327,4325.1298828125,3959.489990234375,4261.02978515625,4088.2099609375,4327.18017578125,4617.43994140625,4105.1298828125,4631.27978515625,4207.18017578125,4233.85009765625,4231.27978515625,4306.14990234375,4642.56005859375,4391.7900390625,1
328,,3962.56005859375,4260.0,,4327.68994140625,4621.02978515625,4103.080078125,4631.7900390625,4206.669921875,4230.259765625,4226.669921875,4307.68994140625,4639.490234375,4388.2099609375,1
329,4326.14990234375,3972.820068359375,4265.1298828125,4094.8701171875,4332.31005859375,,4105.1298828125,4641.5400390625,4226.14990234375,4234.35986328125,4233.85009765625,,4645.1298828125,4389.22998046875,1
330,4329.740234375,3974.8701171875,4268.2099609375,4098.4599609375,4335.3798828125,4621.02978515625,4109.22998046875,4644.6201171875,4232.31005859375,4242.0498046875,4237.43994140625,4308.2099609375,4649.740234375,4395.3798828125,1
331,,3967.179931640625,4264.6201171875,4093.330078125,4333.85009765625,4627.18017578125,4113.330078125,4640.0,4214.35986328125,,4229.740234375,4302.0498046875,4646.14990234375,4393.85009765625,1
332,4325.64013671875,3970.260009765625,4264.6201171875,4093.330078125,4331.27978515625,4630.77001953125,4114.8701171875,4638.97021484375,4208.2099609375,4225.64013671875,,4303.080078125,4644.6201171875,4395.89990234375,1
333,4338.97021484375,3985.1298828125,4272.31005859375,4105.1298828125,4334.35986328125,4625.1298828125,4112.31005859375,4636.41015625,4221.5400390625,4232.81982421875,4239.490234375,4314.35986328125,4652.81982421875,4408.72021484375,1
334,4348.72021484375,3990.260009765625,4282.56005859375,4110.259765625,4341.02978515625,4624.10009765625,4106.669921875,4629.740234375,4220.509765625,4243.080078125,4248.2099609375,4322.56005859375,,4412.31005859375,1
335,4344.10009765625,3983.080078125,4281.5400390625,4106.14990234375,4341.02978515625,4627.18017578125,4105.1298828125,4627.68994140625,4208.2099609375,4240.0,4244.6201171875,4317.9501953125,4658.97021484375,4403.080078125,1
336,4337.9501953125,3978.969970703125,4271.27978515625,4105.64013671875,4335.3798828125,4627.68994140625,4110.259765625,4632.81982421875,,4239.490234375,,4313.330078125,4656.919921875,4404.6201171875,1
337,4337.9501953125,3980.0,4265.64013671875,4104.6201171875,,4631.27978515625,4112.81982421875,4636.919921875,4224.10009765625,4244.10009765625,4243.080078125,4315.89990234375,4656.41015625,4405.1298828125,1
338,4332.81982421875,3975.3798828125,,4101.02978515625,4343.080078125,4635.89990234375,4109.22998046875,,4215.3798828125,4236.41015625,4236.41015625,4312.31005859375,4645.1298828125,,1
339,,3975.89990234375,4263.080078125,4103.58984375,4344.6201171875,4635.3798828125,4105.1298828125,4632.81982421875,4205.1298828125,4223.080078125,4227.18017578125,4302.0498046875,4634.8701171875,4386.14990234375,1
340,4332.31005859375,3990.260009765625,4262.56005859375,4110.77001953125,4343.58984375,4628.72021484375,4102.56005859375,4630.259765625,4216.41015625,4223.080078125,,4297.9501953125,,4389.22998046875,1
341,4338.4599609375,,4264.10009765625,4110.77001953125,4342.56005859375,4622.56005859375,4100.0,4630.77001953125,4225.1298828125,4232.81982421875,4231.7900390625,4303.080078125,4637.9501953125,4390.77001953125,1
342,4333.85009765625,,4265.1298828125,4102.0498046875,4335.3798828125,4624.6201171875,4102.56005859375,4640.0,4222.0498046875,,,4306.669921875,4642.0498046875,4393.85009765625,1
343,4329.740234375,3980.0,4264.10009765625,4098.97021484375,4331.7900390625,4629.22998046875,4108.2099609375,4646.14990234375,,4240.509765625,4237.43994140625,4305.64013671875,4644.10009765625,4395.89990234375,1
344,4332.31005859375,3989.739990234375,4265.1298828125,4106.669921875,4337.43994140625,4623.58984375,4105.1298828125,4631.27978515625,4214.8701171875,4235.3798828125,,4305.1298828125,4641.5400390625,4395.3798828125,1
345,4332.81982421875,3994.360107421875,4266.14990234375,4110.259765625,4339.490234375,4617.9501953125,4096.919921875,4610.259765625,4191.27978515625,,4228.72021484375,4305.64013671875,4635.89990234375,4392.31005859375,1
346,4330.77001953125,3986.14990234375,4263.58984375,4102.0498046875,,4623.58984375,4099.490234375,4612.81982421875,4190.77001953125,4223.080078125,4223.58984375,4305.1298828125,4627.68994140625,4389.22998046875,1
347,4332.81982421875,3976.409912109375,4260.509765625,4096.919921875,4333.330078125,4628.2099609375,4109.22998046875,4628.72021484375,4208.2099609375,4223.58984375,,4304.10009765625,4626.14990234375,4391.27978515625,1
348,4337.43994140625,3983.080078125,4266.14990234375,,4332.31005859375,4625.64013671875,4108.72021484375,4633.330078125,4209.740234375,4222.0498046875,4223.58984375,,,4396.919921875,1
349,4344.10009765625,4000.510009765625,4276.919921875,4108.2099609375,4337.43994140625,4625.1298828125,4102.56005859375,4631.27978515625,4210.259765625,4225.1298828125,4226.14990234375,4303.080078125,4634.35986328125,4403.080078125,1
350,4356.41015625,4007.68994140625,4281.5400390625,4114.35986328125,4343.080078125,4628.2099609375,4105.1298828125,4633.85009765625,4225.64013671875,4232.31005859375,4234.8701171875,4309.740234375,4638.97021484375,4415.3798828125,1
351,4365.1298828125,,4282.56005859375,,4341.5400390625,4626.14990234375,4106.669921875,,4228.2099609375,4237.43994140625,4244.6201171875,4318.97021484375,4651.7900390625,4422.0498046875,1
352,4360.0,4008.719970703125,4279.490234375,,4341.02978515625,4624.6201171875,4099.490234375,4628.72021484375,4210.77001953125,4234.8701171875,,4313.330078125,4648.2099609375,4408.2099609375,1
353,4351.27978515625,4007.68994140625,4274.35986328125,4118.4599609375,4342.56005859375,4631.27978515625,4102.0498046875,4623.080078125,4203.58984375,4224.10009765625,4226.669921875,4301.5400390625,4632.81982421875,4398.4599609375,1
354,4352.31005859375,4003.590087890625,4274.35986328125,4114.35986328125,4338.97021484375,4633.330078125,4109.740234375,4626.14990234375,4211.27978515625,4224.10009765625,,4305.64013671875,4633.85009765625,4407.18017578125,1
355,4360.0,4001.5400390625,4278.97021484375,4111.27978515625,,4622.56005859375,4105.1298828125,4627.18017578125,,4234.35986328125,4238.4599609375,4316.41015625,,,1
356,,4003.590087890625,4280.0,,4339.490234375,4618.4599609375,,4625.64013671875,4210.259765625,4234.8701171875,4237.43994140625,4314.35986328125,,4410.77001953125,1
357,4352.31005859375,4004.10009765625,4275.89990234375,4116.919921875,4333.85009765625,4625.64013671875,4107.18017578125,4625.1298828125,4205.64013671875,4227.68994140625,4232.31005859375,,4635.3798828125,4402.56005859375,1
358,4349.740234375,4003.590087890625,4273.85009765625,4108.2099609375,4332.81982421875,4630.77001953125,4107.68994140625,4627.68994140625,4210.77001953125,4229.22998046875,4237.43994140625,4306.669921875,4638.97021484375,4407.68994140625,1
359,4359.490234375,4006.669921875,4278.4599609375,4115.3798828125,4337.9501953125,4630.77001953125,4106.14990234375,4632.81982421875,,4238.4599609375,,4317.43994140625,,4420.509765625,1
360,4367.18017578125,4012.820068359375,4284.6201171875,4126.669921875,4342.56005859375,4631.27978515625,4105.64013671875,4636.919921875,4226.14990234375,4242.56005859375,4242.0498046875,4323.58984375,4652.81982421875,4422.56005859375,1
361,4359.490234375,4009.22998046875,4282.56005859375,4121.02978515625,4340.0,4630.77001953125,4105.1298828125,4634.8701171875,,4231.7900390625,4230.77001953125,4315.89990234375,4644.6201171875,4410.259765625,1
362,4346.669921875,3995.3798828125,4277.9501953125,,4333.330078125,4627.68994140625,4103.080078125,4628.72021484375,4206.669921875,4218.4599609375,4208.2099609375,4306.14990234375,4629.22998046875,4399.490234375,1
363,4343.080078125,3991.7900390625,4275.89990234375,4114.8701171875,,4623.080078125,4100.509765625,4622.56005859375,4207.68994140625,4218.4599609375,4194.35986328125,4303.58984375,4621.02978515625,4395.89990234375,1
364,4341.02978515625,3997.43994140625,4270.259765625,4120.0,4337.9501953125,4624.10009765625,4101.5400390625,4626.669921875,4214.35986328125,4227.18017578125,4194.35986328125,4301.02978515625,4624.6201171875,4390.77001953125,1
365,4336.919921875,3993.330078125,4264.6201171875,4112.81982421875,4338.4599609375,4632.81982421875,4105.1298828125,4636.41015625,4222.0498046875,4233.330078125,4194.8701171875,,,4386.669921875,1
366,4336.41015625,3985.1298828125,4263.58984375,4102.56005859375,4334.35986328125,4635.3798828125,4106.14990234375,,4222.56005859375,,4192.31005859375,4302.56005859375,4618.97021484375,4388.2099609375,1
367,4334.8701171875,3986.14990234375,4263.58984375,4103.58984375,4333.330078125,4631.7900390625,4108.2099609375,4631.27978515625,4223.58984375,4231.27978515625,4191.27978515625,4301.5400390625,4617.43994140625,4391.27978515625,1
368,4330.259765625,3991.7900390625,4263.58984375,4108.2099609375,4336.919921875,4633.85009765625,4112.81982421875,4641.02978515625,4222.56005859375,,4189.740234375,4303.080078125,4623.080078125,4389.740234375,1
369,,3988.719970703125,4264.10009765625,4105.64013671875,4334.8701171875,4633.330078125,4112.81982421875,,4211.7900390625,4230.259765625,4189.740234375,4306.669921875,4625.64013671875,,1
370,4328.72021484375,3982.050048828125,4264.6201171875,4103.58984375,4327.68994140625,4624.6201171875,4107.18017578125,4626.14990234375,4207.18017578125,4219.490234375,4188.2099609375,4303.58984375,4623.080078125,4386.14990234375,1
371,4329.22998046875,3984.6201171875,4264.6201171875,4105.64013671875,4327.68994140625,4621.02978515625,4103.58984375,4629.740234375,4214.8701171875,4220.509765625,4181.5400390625,,4619.490234375,4386.14990234375,1
372,,3986.669921875,4267.18017578125,4106.669921875,4333.330078125,,4104.10009765625,4640.509765625,4223.080078125,4229.22998046875,,4302.56005859375,4622.0498046875,4387.18017578125,1
373,4329.740234375,3983.080078125,4267.18017578125,4106.14990234375,4330.77001953125,4624.6201171875,4102.56005859375,4638.4599609375,,4226.14990234375,4184.10009765625,4302.0498046875,4623.080078125,4387.68994140625,1
374,4328.72021484375,3983.590087890625,4264.10009765625,4104.6201171875,4326.14990234375,4618.4599609375,4096.919921875,4628.72021484375,,4217.9501953125,4179.490234375,4294.8701171875,4615.3798828125,4384.10009765625,1
375,4331.7900390625,3989.739990234375,4265.64013671875,4108.2099609375,4330.77001953125,4616.919921875,4093.85009765625,4621.5400390625,4200.509765625,4216.919921875,4180.509765625,4297.43994140625,4615.89990234375,,1
376,4338.97021484375,3992.820068359375,4268.72021484375,,4334.35986328125,4617.43994140625,4095.89990234375,4619.490234375,4206.669921875,4224.10009765625,4187.18017578125,4304.6201171875,4623.080078125,,1
377,4336.41015625,3988.719970703125,4266.14990234375,4112.81982421875,4329.740234375,4616.41015625,4092.820068359375,4618.97021484375,4208.2099609375,4227.18017578125,4184.6201171875,4302.0498046875,4621.02978515625,4382.0498046875,1
378,4326.14990234375,3985.1298828125,4262.56005859375,4104.6201171875,4325.64013671875,4616.41015625,4091.280029296875,4622.0498046875,4207.18017578125,4222.56005859375,4177.43994140625,4294.8701171875,4614.8701171875,4375.89990234375,1
379,4325.1298828125,3987.68994140625,4263.080078125,4107.68994140625,4327.68994140625,4616.41015625,4097.9501953125,4626.669921875,4207.18017578125,4216.919921875,4176.41015625,,4614.35986328125,4378.4599609375,1
380,4331.27978515625,,4264.6201171875,4112.81982421875,4329.22998046875,4614.35986328125,4103.080078125,,4201.5400390625,4214.35986328125,4175.89990234375,,4612.31005859375,4379.490234375,1
381,4328.72021484375,3989.22998046875,,4108.2099609375,4325.64013671875,4616.919921875,,4627.68994140625,4202.0498046875,4211.7900390625,4169.740234375,4293.330078125,4608.72021484375,4374.8701171875,1
382,4321.5400390625,3984.10009765625,4263.58984375,,4325.1298828125,4624.6201171875,4113.330078125,4632.31005859375,4212.81982421875,4210.259765625,,4293.330078125,4607.18017578125,4371.7900390625,1
383,4318.97021484375,3983.590087890625,4262.56005859375,4107.18017578125,,4622.56005859375,4110.77001953125,4640.0,4224.10009765625,4222.0498046875,4164.6201171875,4295.3798828125,4608.72021484375,,1
384,4323.58984375,3987.68994140625,4264.10009765625,4107.68994140625,4330.77001953125,4617.43994140625,4104.6201171875,4644.6201171875,4227.18017578125,4233.330078125,4175.89990234375,4300.0,4615.3798828125,4385.1298828125,1
385,4325.1298828125,3985.1298828125,4266.14990234375,4107.68994140625,4331.27978515625,4624.6201171875,4107.68994140625,4637.9501953125,4215.3798828125,4227.68994140625,4178.4599609375,4302.56005859375,4616.919921875,4381.02978515625,1
386,4322.0498046875,3978.4599609375,4268.72021484375,4107.68994140625,4331.27978515625,4628.72021484375,4111.27978515625,4626.14990234375,4206.14990234375,4216.41015625,4169.740234375,4297.43994140625,4608.72021484375,,1
387,,3980.510009765625,4270.259765625,4109.740234375,4332.31005859375,4622.56005859375,4107.68994140625,4623.58984375,4208.72021484375,,4165.1298828125,4294.8701171875,4604.10009765625,4375.3798828125,1
388,4321.02978515625,3987.68994140625,4266.669921875,,4335.89990234375,4624.10009765625,,,,4215.89990234375,4171.27978515625,4298.4599609375,4610.259765625,4382.0498046875,1
389,4319.490234375,,4262.56005859375,4113.330078125,4339.490234375,4627.68994140625,4102.56005859375,4624.10009765625,4211.27978515625,4220.0,4175.3798828125,4300.0,4617.43994140625,4379.490234375,1
390,4316.919921875,3983.080078125,4261.5400390625,4107.18017578125,4337.43994140625,,4099.490234375,4630.77001953125,4216.919921875,4224.6201171875,,4297.9501953125,4617.43994140625,4375.89990234375,1
391,4314.35986328125,,4261.02978515625,4105.64013671875,4331.27978515625,4615.3798828125,4096.919921875,4629.740234375,4209.740234375,4220.509765625,4172.31005859375,4297.43994140625,,4374.35986328125,1
392,4312.81982421875,3983.080078125,,4105.64013671875,,4616.41015625,4095.89990234375,4624.6201171875,4204.6201171875,4212.81982421875,4167.68994140625,,4612.31005859375,4371.27978515625,1
393,4316.919921875,3978.4599609375,4264.10009765625,4103.080078125,4329.740234375,4616.41015625,4097.9501953125,4626.14990234375,4210.77001953125,4212.81982421875,4166.669921875,4293.330078125,4608.72021484375,4371.27978515625,1
394,4320.0,3980.510009765625,4256.41015625,4101.02978515625,4330.259765625,4623.080078125,,4632.31005859375,4216.919921875,4221.5400390625,4170.77001953125,4291.27978515625,4609.740234375,4372.81982421875,1
395,4315.3798828125,3984.6201171875,4246.14990234375,4095.89990234375,4330.77001953125,4630.77001953125,4106.669921875,4638.4599609375,4219.490234375,4227.68994140625,4172.81982421875,4289.22998046875,4616.41015625,4373.85009765625,1
396,4316.919921875,3981.030029296875,4248.2099609375,4093.85009765625,4334.8701171875,4626.14990234375,4107.68994140625,4640.0,4223.080078125,4227.18017578125,4173.330078125,4289.740234375,,4377.43994140625,1
397,4324.10009765625,3979.489990234375,4257.43994140625,4096.919921875,4329.740234375,,4097.43994140625,4631.7900390625,,4225.64013671875,4173.85009765625,4291.7900390625,4616.41015625,4377.43994140625,1
398,4321.02978515625,3978.4599609375,4254.8701171875,4091.7900390625,4320.0,4608.2099609375,4086.669921875,4622.0498046875,4212.31005859375,4221.02978515625,4166.14990234375,4287.68994140625,4610.259765625,,1
399,4309.740234375,3975.89990234375,4249.22998046875,4087.179931640625,4324.6201171875,,4086.669921875,4621.02978515625,4211.27978515625,4221.02978515625,4160.509765625,4283.080078125,4605.1298828125,4364.6201171875,1
400,4306.669921875,3981.5400390625,4242.0498046875,4090.77001953125,4334.35986328125,4613.85009765625,4092.31005859375,4625.1298828125,4213.330078125,4225.64013671875,4164.10009765625,4282.56005859375,4606.669921875,4364.10009765625,1
401,4305.1298828125,3983.080078125,,4088.2099609375,4331.27978515625,4616.919921875,4091.280029296875,4628.2099609375,4213.85009765625,4225.64013671875,4167.18017578125,,4611.27978515625,4366.669921875,1
402,4301.5400390625,3972.31005859375,4241.5400390625,4083.080078125,4328.72021484375,4616.919921875,,4630.77001953125,4211.27978515625,4223.58984375,4170.77001953125,4285.64013671875,4611.7900390625,4369.22998046875,1
403,4307.68994140625,,4248.72021484375,4088.719970703125,4332.81982421875,4619.490234375,4094.360107421875,4632.31005859375,,4223.58984375,4174.8701171875,4292.31005859375,4608.72021484375,4370.259765625,1
404,4315.89990234375,3977.949951171875,4254.35986328125,4092.31005859375,4330.77001953125,,4093.85009765625,4629.22998046875,4210.77001953125,4223.58984375,4173.85009765625,4297.9501953125,4609.740234375,4376.41015625,1
405,4314.8701171875,3981.030029296875,4260.509765625,4090.77001953125,4329.740234375,4615.3798828125,4093.330078125,4631.27978515625,4218.97021484375,4226.669921875,4177.9501953125,4303.080078125,,4382.0498046875,1
406,4309.740234375,3978.969970703125,4257.9501953125,4090.77001953125,4331.7900390625,4620.509765625,4100.509765625,4644.6201171875,4231.7900390625,,4187.68994140625,4305.64013671875,4623.080078125,4376.919921875,1
407,4307.18017578125,3981.5400390625,,4091.7900390625,4331.27978515625,4625.1298828125,,4651.7900390625,,4240.509765625,,,4622.56005859375,4372.31005859375,1
408,4309.22998046875,3984.6201171875,4260.509765625,4091.7900390625,4330.259765625,4620.0,4107.18017578125,4645.64013671875,4225.64013671875,4240.509765625,4181.5400390625,4302.56005859375,4621.5400390625,4376.919921875,1
409,4311.27978515625,3977.949951171875,4264.6201171875,4087.68994140625,4330.77001953125,4618.97021484375,4105.1298828125,4641.5400390625,4220.0,4234.8701171875,4181.02978515625,4301.5400390625,4621.02978515625,4381.02978515625,1
410,4312.31005859375,3972.820068359375,4258.4599609375,4085.639892578125,4332.31005859375,4623.58984375,4108.2099609375,4642.0498046875,4214.8701171875,4227.68994140625,4180.509765625,4302.0498046875,4620.0,4381.02978515625,1
411,4311.7900390625,3976.409912109375,4253.330078125,4090.260009765625,4333.85009765625,4619.490234375,4103.58984375,,4217.43994140625,4229.740234375,,4302.0498046875,4619.490234375,4375.89990234375,1
412,4308.2099609375,3979.489990234375,4249.22998046875,4091.280029296875,4334.35986328125,4612.81982421875,4097.9501953125,4628.72021484375,4218.97021484375,4232.31005859375,4176.41015625,4294.35986328125,,,1
413,4307.68994140625,3978.969970703125,4248.2099609375,4089.22998046875,4335.3798828125,4614.8701171875,4100.0,,4207.68994140625,4228.72021484375,,4286.14990234375,4618.4599609375,4371.27978515625,1
414,4310.77001953125,3976.919921875,4250.259765625,4090.260009765625,4334.35986328125,4616.919921875,4101.02978515625,4626.669921875,,4218.97021484375,4163.58984375,4288.72021484375,4610.77001953125,4368.72021484375,1
415,4306.669921875,3974.8701171875,4246.669921875,4090.77001953125,4330.259765625,4613.85009765625,4097.9501953125,4624.6201171875,4198.97021484375,4210.259765625,4158.4599609375,4288.72021484375,4599.490234375,4358.4599609375,1
416,4303.58984375,3981.030029296875,4246.669921875,4090.260009765625,4333.85009765625,4612.81982421875,4099.490234375,,4208.2099609375,4213.85009765625,4161.5400390625,4289.22998046875,4604.6201171875,,1
417,4311.7900390625,3989.22998046875,4254.35986328125,4091.280029296875,4336.919921875,4618.97021484375,,4633.330078125,4214.8701171875,,4174.8701171875,4295.89990234375,4620.509765625,4378.97021484375,1
418,4312.31005859375,3983.080078125,4261.5400390625,4090.77001953125,,4623.58984375,4111.27978515625,4639.490234375,4218.4599609375,4233.85009765625,4177.9501953125,4298.97021484375,,4375.89990234375,1
419,4305.64013671875,3975.3798828125,4263.58984375,4090.260009765625,4326.14990234375,4621.02978515625,4106.669921875,4641.02978515625,4217.9501953125,4225.1298828125,4170.259765625,4295.3798828125,4614.35986328125,4366.669921875,1
420,4308.72021484375,3981.030029296875,4262.0498046875,4091.280029296875,4328.2099609375,4617.9501953125,4102.56005859375,4636.41015625,4214.35986328125,4225.1298828125,4172.81982421875,4293.85009765625,4614.8701171875,4371.7900390625,1
421,4315.3798828125,,4262.56005859375,4089.739990234375,4330.259765625,4618.97021484375,4103.080078125,4636.41015625,4218.97021484375,4235.89990234375,4184.10009765625,4298.97021484375,4621.5400390625,4385.64013671875,1
422,4313.85009765625,3987.68994140625,4265.1298828125,,4330.77001953125,4621.5400390625,4102.56005859375,4643.58984375,4226.669921875,4241.5400390625,4185.64013671875,4305.1298828125,4626.669921875,4386.14990234375,1
423,4304.6201171875,3984.6201171875,4258.4599609375,4090.260009765625,4329.22998046875,4621.02978515625,4097.9501953125,4642.56005859375,4222.0498046875,4233.85009765625,4180.0,4301.02978515625,4622.0498046875,4372.31005859375,1
424,4298.4599609375,3979.489990234375,,4084.6201171875,4328.72021484375,4618.97021484375,4096.919921875,4634.35986328125,4217.43994140625,4227.68994140625,,,4611.27978515625,4364.6201171875,1
425,4294.35986328125,3972.820068359375,4247.68994140625,4080.0,4330.77001953125,4614.8701171875,4099.490234375,4629.740234375,4216.41015625,4229.22998046875,,4290.77001953125,4604.6201171875,,1
426,4287.68994140625,3970.77001953125,4238.97021484375,4077.43994140625,4327.18017578125,4608.72021484375,4096.919921875,4625.1298828125,4202.56005859375,4222.56005859375,4169.740234375,,4604.6201171875,4354.8701171875,1
427,4286.669921875,3969.22998046875,4234.8701171875,4073.85009765625,4320.0,4604.10009765625,4089.22998046875,4621.5400390625,4191.7900390625,,4169.22998046875,4285.1298828125,4606.669921875,,1
428,4293.85009765625,3968.2099609375,4244.10009765625,,4322.56005859375,,,,4203.58984375,4209.22998046875,4170.259765625,4288.2099609375,4607.68994140625,,1
429,4295.89990234375,3973.330078125,4251.27978515625,4080.510009765625,4327.18017578125,4611.27978515625,4097.9501953125,4624.6201171875,4209.22998046875,4219.490234375,4169.22998046875,4288.72021484375,4605.1298828125,4361.5400390625,1
430,4291.27978515625,,4247.68994140625,,4324.6201171875,,4101.5400390625,4625.64013671875,,4215.89990234375,4163.080078125,4285.1298828125,4598.97021484375,4355.89990234375,1
431,4292.31005859375,,4245.64013671875,4080.510009765625,4324.6201171875,,4098.4599609375,4627.18017578125,4210.259765625,4213.85009765625,4165.1298828125,4287.68994140625,4602.0498046875,4366.669921875,1
432,4301.5400390625,3976.919921875,4251.27978515625,4086.14990234375,4329.22998046875,4617.9501953125,4099.490234375,4628.72021484375,4222.56005859375,4226.14990234375,4176.41015625,4294.35986328125,4613.330078125,4373.330078125,1
433,,,4256.919921875,4088.719970703125,4329.22998046875,4616.919921875,4103.080078125,4633.330078125,4220.0,4233.85009765625,4182.56005859375,4298.4599609375,4620.0,4371.27978515625,1
434,4303.58984375,3983.080078125,4259.490234375,4089.739990234375,4327.18017578125,4616.41015625,4102.0498046875,4634.8701171875,,4232.31005859375,4182.0498046875,4301.5400390625,4622.0498046875,4373.330078125,1
435,4305.64013671875,,4260.509765625,4092.31005859375,4328.72021484375,,4102.56005859375,4630.77001953125,4218.4599609375,,4183.080078125,4304.10009765625,4624.10009765625,4377.9501953125,1
436,4307.18017578125,3986.14990234375,4256.919921875,4086.14990234375,4329.740234375,4617.43994140625,4105.1298828125,4631.7900390625,4217.43994140625,4232.81982421875,4184.6201171875,,4623.58984375,4375.3798828125,1
437,4299.490234375,3979.489990234375,4249.22998046875,4080.510009765625,4328.72021484375,4617.9501953125,4103.58984375,4637.9501953125,4217.43994140625,4235.3798828125,,4301.02978515625,4624.10009765625,4371.7900390625,1
438,4295.89990234375,3977.949951171875,,4087.68994140625,4326.669921875,4616.919921875,,4632.81982421875,4213.85009765625,,4180.509765625,4292.81982421875,4623.58984375,4369.22998046875,1
439,4300.0,3979.489990234375,,4089.22998046875,4327.68994140625,4615.3798828125,4095.89990234375,4618.4599609375,4199.490234375,4223.080078125,4175.89990234375,4286.14990234375,4614.35986328125,4363.080078125,1
440,4294.8701171875,3975.89990234375,,4082.56005859375,4330.77001953125,4615.3798828125,4089.22998046875,,4200.509765625,4214.8701171875,4171.27978515625,4286.669921875,4606.669921875,4358.97021484375,1
441,4291.27978515625,3973.85009765625,4246.669921875,4087.179931640625,4333.85009765625,4613.85009765625,4089.739990234375,4627.18017578125,4211.27978515625,4216.41015625,4171.7900390625,4288.72021484375,4608.72021484375,,1
442,4295.89990234375,3977.43994140625,4251.27978515625,4092.820068359375,4333.330078125,4612.31005859375,,4625.1298828125,4202.56005859375,4218.4599609375,4169.22998046875,4286.669921875,4611.7900390625,4368.2099609375,1
443,4298.4599609375,3982.050048828125,4249.740234375,4090.260009765625,4331.7900390625,4611.7900390625,4097.9501953125,4617.43994140625,4194.35986328125,4218.4599609375,4164.6201171875,4283.080078125,4609.740234375,,1
444,4298.97021484375,3989.739990234375,,,4333.330078125,4610.259765625,4091.280029296875,4624.10009765625,4206.14990234375,4218.4599609375,4165.64013671875,4277.43994140625,,4354.35986328125,1
445,4295.89990234375,3989.22998046875,4250.259765625,4094.8701171875,4334.8701171875,4614.8701171875,4088.2099609375,4632.31005859375,4214.8701171875,,4172.81982421875,4274.35986328125,4612.31005859375,4357.9501953125,1
446,,3985.639892578125,4252.81982421875,4091.280029296875,4334.8701171875,4618.97021484375,4092.820068359375,4630.259765625,4214.8701171875,4232.81982421875,4177.9501953125,4284.6201171875,4622.0498046875,4368.2099609375,1
447,4300.509765625,3990.77001953125,4251.7900390625,4093.330078125,4330.259765625,4609.22998046875,4096.41015625,4624.10009765625,4210.259765625,4229.22998046875,4181.5400390625,4298.4599609375,4625.1298828125,4369.22998046875,1
448,4299.490234375,3990.260009765625,4255.89990234375,4097.43994140625,4324.6201171875,4601.02978515625,4093.330078125,4617.43994140625,,4214.8701171875,4180.509765625,4297.43994140625,4616.41015625,4360.0,1
449,4294.8701171875,3985.639892578125,4262.0498046875,4096.41015625,4326.669921875,4607.18017578125,4089.739990234375,4611.7900390625,4197.43994140625,4213.330078125,4172.31005859375,4289.22998046875,4612.81982421875,4359.490234375,1
450,4297.9501953125,3988.719970703125,4261.5400390625,4094.8701171875,4333.85009765625,4614.8701171875,4092.31005859375,4614.35986328125,4206.14990234375,4218.97021484375,4172.31005859375,4289.22998046875,4615.89990234375,4366.669921875,1
451,4301.02978515625,3989.739990234375,4254.8701171875,,4333.85009765625,4613.85009765625,4094.8701171875,4613.330078125,4197.9501953125,4216.41015625,,,4615.89990234375,4366.14990234375,1
452,4297.9501953125,3984.6201171875,4251.7900390625,4092.820068359375,4332.81982421875,4613.330078125,4094.360107421875,4610.77001953125,4196.41015625,4214.35986328125,4170.77001953125,4291.7900390625,4615.89990234375,4363.080078125,1
453,4302.56005859375,3988.2099609375,4258.97021484375,4099.490234375,,4617.9501953125,,4617.9501953125,4210.259765625,4223.080078125,,4298.97021484375,4621.5400390625,4370.259765625,1
454,4309.22998046875,3995.89990234375,4266.14990234375,4105.64013671875,4344.6201171875,4620.509765625,,,4211.7900390625,4230.259765625,4182.0498046875,4298.97021484375,4625.1298828125,4373.85009765625,1
455,4304.10009765625,3994.8701171875,4265.1298828125,,4341.5400390625,4618.97021484375,4094.360107421875,4621.5400390625,,4224.6201171875,4176.41015625,4289.740234375,4620.0,4363.080078125,1
456,4293.330078125,3986.14990234375,4260.0,4092.31005859375,4337.43994140625,4617.43994140625,4092.820068359375,4621.02978515625,4201.02978515625,4214.35986328125,4164.6201171875,4287.18017578125,4610.77001953125,4355.3798828125,1
457,4289.740234375,3976.919921875,4258.97021484375,4089.739990234375,4330.259765625,4615.3798828125,4097.9501953125,4626.14990234375,4211.7900390625,4215.3798828125,4167.68994140625,4294.8701171875,4605.1298828125,4357.43994140625,1
458,4297.43994140625,3983.590087890625,4262.56005859375,4098.97021484375,4330.77001953125,4614.35986328125,4100.509765625,4625.1298828125,,4229.740234375,4177.43994140625,4300.509765625,4609.740234375,4363.080078125,1
459,4307.18017578125,4003.080078125,4269.22998046875,4111.27978515625,,4622.56005859375,4101.5400390625,4623.58984375,4225.1298828125,4237.43994140625,4183.080078125,4298.97021484375,4621.5400390625,,1
460,4302.56005859375,4003.080078125,4268.2099609375,4110.259765625,4347.18017578125,4631.7900390625,4104.10009765625,,4220.509765625,4234.35986328125,,4293.330078125,4626.14990234375,4366.669921875,1
461,4290.77001953125,3986.669921875,4260.0,,4335.89990234375,4627.18017578125,4103.58984375,4621.5400390625,4208.2099609375,4229.22998046875,4178.4599609375,4290.259765625,4617.43994140625,4358.97021484375,1
462,4291.27978515625,3985.639892578125,4258.97021484375,4097.9501953125,4334.35986328125,4618.97021484375,4101.02978515625,4609.740234375,4193.85009765625,4223.080078125,4179.490234375,4295.3798828125,4616.41015625,4360.509765625,1
463,4298.4599609375,,4265.1298828125,4107.68994140625,4337.9501953125,4616.41015625,4098.4599609375,4608.72021484375,4193.85009765625,4219.490234375,,4296.919921875,4624.10009765625,4365.1298828125,1
464,4292.81982421875,3989.739990234375,4261.02978515625,4105.1298828125,4330.77001953125,4612.81982421875,4096.919921875,4613.330078125,,4215.3798828125,,4289.740234375,4618.97021484375,4353.330078125,1
465,4283.58984375,3983.080078125,4252.31005859375,4098.4599609375,4328.2099609375,4610.77001953125,4095.89990234375,4613.85009765625,4197.43994140625,4205.64013671875,4163.58984375,4280.0,4603.58984375,4344.10009765625,1
466,4285.64013671875,3986.14990234375,4256.41015625,4100.509765625,4334.35986328125,4615.3798828125,4099.490234375,4620.0,4201.02978515625,4201.5400390625,4160.509765625,4275.89990234375,4598.97021484375,4346.669921875,1
467,4288.2099609375,3988.719970703125,4261.02978515625,4100.509765625,4336.919921875,4620.0,4105.1298828125,4628.2099609375,4208.72021484375,4208.2099609375,,,4603.080078125,4346.669921875,1
468,4286.14990234375,,4250.259765625,4098.4599609375,4334.8701171875,,4104.6201171875,,4210.259765625,4217.9501953125,4174.35986328125,,4609.740234375,4346.14990234375,1
469,4288.72021484375,3997.949951171875,4248.72021484375,4105.1298828125,4338.4599609375,4613.330078125,4098.4599609375,4617.9501953125,4210.77001953125,4225.1298828125,4176.919921875,4282.0498046875,,4351.7900390625,1
470,4296.919921875,4001.5400390625,4261.5400390625,4109.740234375,4341.02978515625,4611.27978515625,4094.360107421875,4620.0,4210.77001953125,,,4284.6201171875,4616.919921875,4352.81982421875,1
471,4301.5400390625,4003.590087890625,4265.1298828125,4108.2099609375,4339.490234375,4611.27978515625,4096.41015625,4621.5400390625,4206.669921875,4223.080078125,4176.41015625,4287.68994140625,4618.97021484375,4353.330078125,1
472,4301.5400390625,4003.590087890625,4264.10009765625,4107.18017578125,4340.509765625,4615.89990234375,4095.89990234375,4618.97021484375,4201.5400390625,4220.509765625,4184.10009765625,4294.35986328125,,4365.64013671875,1
473,4299.490234375,3997.949951171875,4264.6201171875,4104.6201171875,4341.02978515625,,4088.2099609375,4617.9501953125,4203.58984375,4218.97021484375,4191.27978515625,4298.97021484375,4626.14990234375,4368.2099609375,1
474,4291.7900390625,3993.330078125,4254.35986328125,4102.56005859375,4338.97021484375,4616.919921875,,4622.56005859375,4211.7900390625,,4181.02978515625,4288.72021484375,4620.0,4352.31005859375,1
475,4286.14990234375,3994.360107421875,4246.14990234375,4104.6201171875,4336.919921875,4623.58984375,4100.509765625,4628.72021484375,4211.7900390625,,4167.68994140625,4273.330078125,,4342.56005859375,1
476,4285.1298828125,3994.8701171875,4253.85009765625,4105.1298828125,4336.41015625,,4106.14990234375,4628.72021484375,4210.77001953125,4217.9501953125,4169.740234375,4274.35986328125,4601.5400390625,4346.669921875,1
477,4285.1298828125,3993.85009765625,4263.080078125,4105.1298828125,4338.4599609375,4618.97021484375,4101.02978515625,4630.77001953125,,4226.669921875,4179.490234375,4284.10009765625,4609.22998046875,4352.31005859375,1
478,4288.2099609375,3998.969970703125,4262.0498046875,4107.18017578125,4344.10009765625,4617.43994140625,4100.0,4637.9501953125,,4235.89990234375,4185.1298828125,4292.31005859375,4619.490234375,4353.85009765625,1
479,4293.330078125,4000.510009765625,4263.080078125,4105.64013671875,4345.64013671875,4624.10009765625,4101.5400390625,4633.330078125,4211.27978515625,4232.31005859375,4185.64013671875,4295.89990234375,4620.0,4354.8701171875,1
480,4291.27978515625,3996.409912109375,4263.080078125,4105.1298828125,4342.0498046875,4625.1298828125,4098.97021484375,,4200.509765625,4222.56005859375,4182.56005859375,4292.81982421875,,4353.85009765625,1
481,4283.080078125,3995.3798828125,4255.89990234375,4109.22998046875,4346.14990234375,4626.669921875,4098.97021484375,4630.77001953125,4217.9501953125,4221.5400390625,4175.89990234375,4283.58984375,4610.259765625,4345.1298828125,1
482,4274.35986328125,3994.8701171875,4244.10009765625,4106.14990234375,4344.6201171875,4632.31005859375,,4636.41015625,4221.5400390625,,4165.1298828125,4269.740234375,4600.509765625,4328.2099609375,1
483,4270.77001953125,3990.77001953125,4236.41015625,4094.360107421875,4334.8701171875,4626.14990234375,4099.490234375,4621.5400390625,,4206.669921875,4160.0,,4594.35986328125,4322.56005859375,1
484,4276.919921875,3988.719970703125,4240.0,4090.260009765625,4332.31005859375,4616.41015625,4094.8701171875,4615.3798828125,4200.0,4214.35986328125,4171.27978515625,4273.330078125,4601.02978515625,4338.4599609375,1
485,,3996.919921875,4254.35986328125,4096.919921875,4337.9501953125,4617.9501953125,4101.5400390625,,4219.490234375,4228.2099609375,4189.22998046875,4291.7900390625,4617.43994140625,4357.9501953125,1
486,4301.02978515625,4005.1298828125,4266.669921875,4105.64013671875,4341.02978515625,4622.0498046875,4104.10009765625,4636.41015625,4224.6201171875,4231.7900390625,4195.3798828125,4298.4599609375,4626.669921875,4361.5400390625,1
487,4297.9501953125,4003.590087890625,4262.56005859375,4104.10009765625,4338.97021484375,,4099.490234375,4631.7900390625,4219.490234375,4229.22998046875,4191.7900390625,4293.85009765625,4623.080078125,4356.919921875,1
488,,3996.409912109375,4252.31005859375,4097.43994140625,4336.919921875,,4097.9501953125,4626.669921875,4215.89990234375,4227.18017578125,4187.18017578125,4286.14990234375,4620.509765625,,1
489,4285.64013671875,3991.7900390625,4246.669921875,4091.280029296875,4335.3798828125,4618.97021484375,4102.0498046875,4627.18017578125,4215.3798828125,4223.080078125,4181.5400390625,4277.9501953125,4614.8701171875,4344.10009765625,1
490,4283.58984375,3989.22998046875,4240.509765625,4084.6201171875,4334.8701171875,4624.10009765625,4104.10009765625,,,4221.5400390625,4178.97021484375,4273.85009765625,4608.72021484375,4341.5400390625,1
491,4281.02978515625,3987.68994140625,4232.81982421875,,4335.3798828125,4624.6201171875,4100.0,4630.77001953125,,,4182.0498046875,4276.919921875,4614.8701171875,4347.68994140625,1
492,4279.490234375,3991.280029296875,4232.81982421875,4087.179931640625,4335.89990234375,,,4625.1298828125,4201.5400390625,,4182.56005859375,4280.509765625,4619.490234375,4346.669921875,1
493,4280.509765625,3991.7900390625,4241.02978515625,,4333.85009765625,4615.3798828125,,4620.509765625,4201.02978515625,4217.43994140625,,4280.509765625,4613.85009765625,4342.0498046875,1
494,4286.14990234375,3991.7900390625,,4083.590087890625,4332.81982421875,,4091.280029296875,4620.509765625,4212.31005859375,4217.9501953125,4184.10009765625,4281.5400390625,4614.8701171875,4348.72021484375,1
495,4290.77001953125,4000.510009765625,4248.72021484375,4092.31005859375,4338.97021484375,4615.3798828125,4090.77001953125,4631.27978515625,4229.22998046875,4230.77001953125,4194.8701171875,4284.10009765625,4624.6201171875,4357.9501953125,1
496,,4006.669921875,4245.1298828125,4091.7900390625,4343.080078125,4620.0,4098.4599609375,4641.02978515625,4233.85009765625,,4197.43994140625,4283.58984375,,4350.259765625,1
497,4284.10009765625,4001.030029296875,4246.14990234375,4084.10009765625,4339.490234375,4624.10009765625,4106.14990234375,4636.41015625,4217.43994140625,4233.330078125,4192.81982421875,4280.509765625,4621.5400390625,4338.97021484375,1
498,4278.97021484375,,4246.14990234375,4084.10009765625,4334.35986328125,,4103.58984375,,4197.43994140625,4217.43994140625,4185.1298828125,4276.41015625,4615.89990234375,,1
499,,3985.639892578125,4235.3798828125,4078.4599609375,,4612.81982421875,4101.02978515625,4621.02978515625,4192.81982421875,4208.2099609375,4175.89990234375,4272.31005859375,4603.58984375,4327.68994140625,1
500,4256.41015625,3975.89990234375,4225.64013671875,,4326.669921875,4612.81982421875,4100.509765625,4618.97021484375,4197.9501953125,4208.72021484375,4171.7900390625,4270.259765625,4597.9501953125,4327.68994140625,1
501,,3985.1298828125,4234.8701171875,4078.4599609375,4336.919921875,4617.43994140625,4100.509765625,4616.41015625,4204.10009765625,4216.41015625,4177.9501953125,4276.41015625,4606.669921875,4340.0,1
502,4281.5400390625,3998.969970703125,4250.259765625,4092.31005859375,4344.10009765625,4621.5400390625,4105.64013671875,,4212.31005859375,4224.6201171875,4185.64013671875,,4613.330078125,4342.56005859375,1
503,,3998.4599609375,4252.31005859375,4092.820068359375,4342.0498046875,4621.5400390625,4109.22998046875,4631.27978515625,4217.9501953125,4225.64013671875,4187.68994140625,4278.4599609375,4612.81982421875,4336.41015625,1
504,4280.0,3997.949951171875,4248.72021484375,4090.260009765625,4341.02978515625,4622.0498046875,4106.14990234375,,4216.919921875,4224.6201171875,4183.080078125,4271.27978515625,4617.43994140625,4341.5400390625,1
505,4282.56005859375,4002.050048828125,4247.18017578125,4091.280029296875,4341.02978515625,4624.6201171875,4106.14990234375,4630.259765625,,4229.22998046875,4182.56005859375,4280.509765625,4623.080078125,4349.22998046875,1
506,4282.0498046875,4003.080078125,4246.14990234375,4091.7900390625,4340.509765625,4624.10009765625,4110.77001953125,4636.919921875,4219.490234375,4234.8701171875,,4287.18017578125,4623.58984375,4348.72021484375,1
507,4279.490234375,,4244.10009765625,4091.7900390625,4341.02978515625,4622.56005859375,4106.14990234375,4632.31005859375,4217.43994140625,4235.3798828125,4191.27978515625,4276.919921875,4620.509765625,4340.0,1
508,,3998.4599609375,4245.1298828125,4090.77001953125,,,4101.5400390625,4626.669921875,4208.72021484375,4227.18017578125,4185.64013671875,,4617.9501953125,4334.8701171875,1
509,4277.43994140625,3998.4599609375,4247.68994140625,4091.7900390625,4343.080078125,4618.4599609375,,,4208.72021484375,4223.58984375,4191.27978515625,,4620.509765625,,1
510,4281.5400390625,4003.590087890625,4248.72021484375,4096.919921875,,,4103.080078125,4621.02978515625,4212.31005859375,4227.18017578125,,,4620.509765625,4349.740234375,1
511,4274.35986328125,3997.43994140625,4247.68994140625,4094.8701171875,,4618.4599609375,4101.02978515625,4620.0,4207.68994140625,4225.1298828125,4181.5400390625,4280.509765625,4613.330078125,4340.509765625,1
512,4269.22998046875,3989.22998046875,,4088.719970703125,4332.31005859375,4618.4599609375,4105.64013671875,4626.669921875,4205.64013671875,4218.4599609375,4177.9501953125,4276.41015625,4610.259765625,4333.85009765625,1
513,4278.4599609375,4001.030029296875,4247.18017578125,4089.739990234375,4332.81982421875,4615.3798828125,4106.14990234375,4627.18017578125,,4220.0,4187.68994140625,4281.02978515625,4615.89990234375,4342.56005859375,1
514,4283.080078125,4010.77001953125,4247.68994140625,4091.7900390625,4336.41015625,4613.330078125,4100.509765625,4625.64013671875,4217.9501953125,4228.2099609375,4191.7900390625,4281.5400390625,4616.919921875,4340.509765625,1
515,4275.3798828125,,4241.5400390625,4088.719970703125,4335.89990234375,4614.8701171875,4101.02978515625,4630.259765625,4214.35986328125,,4187.18017578125,,4610.77001953125,4330.259765625,1
516,4274.8701171875,3997.949951171875,4238.4599609375,4089.739990234375,,4618.4599609375,4105.64013671875,4634.8701171875,4215.89990234375,4227.18017578125,4188.2099609375,4272.81982421875,4612.31005859375,4335.3798828125,1
517,4276.41015625,,4236.919921875,4091.7900390625,4334.8701171875,4622.56005859375,4108.2099609375,4634.35986328125,4223.080078125,4232.31005859375,4191.7900390625,4281.02978515625,4618.4599609375,4339.490234375,1
518,4268.2099609375,4002.56005859375,4232.81982421875,4085.1298828125,4336.41015625,4622.56005859375,4107.18017578125,4629.22998046875,,4230.77001953125,4189.740234375,4277.43994140625,4617.9501953125,4331.27978515625,1
519,4271.27978515625,,,4085.639892578125,4343.080078125,4620.509765625,4105.64013671875,4626.669921875,4216.41015625,4227.18017578125,4190.77001953125,4274.8701171875,4617.43994140625,4333.85009765625,1
520,4286.669921875,4015.3798828125,4248.72021484375,,4348.72021484375,4621.02978515625,4108.2099609375,4630.259765625,4220.0,4232.31005859375,4197.9501953125,4281.5400390625,4623.58984375,4345.64013671875,1
521,,4016.919921875,4251.7900390625,4108.72021484375,4347.68994140625,4619.490234375,4110.77001953125,4633.85009765625,4219.490234375,4238.4599609375,4201.02978515625,4286.669921875,4626.669921875,4345.1298828125,1
522,4281.02978515625,4007.68994140625,4249.22998046875,4098.4599609375,4343.080078125,4617.9501953125,4107.18017578125,,4217.43994140625,4232.81982421875,4196.41015625,4281.5400390625,4618.4599609375,,1
523,4269.22998046875,3997.949951171875,4245.1298828125,4084.10009765625,4338.97021484375,4619.490234375,,4634.8701171875,4224.10009765625,4229.740234375,4197.43994140625,,4615.3798828125,4333.85009765625,1
524,4269.740234375,3996.919921875,4238.4599609375,4081.5400390625,4338.97021484375,,4114.35986328125,4638.4599609375,4230.77001953125,4234.8701171875,4198.4599609375,4272.81982421875,4620.509765625,4336.919921875,1
525,4274.35986328125,4004.10009765625,4236.919921875,,4343.58984375,4627.18017578125,4118.97021484375,4632.81982421875,4224.10009765625,4237.43994140625,4195.3798828125,4274.35986328125,4620.509765625,4335.89990234375,1
526,4277.9501953125,4014.360107421875,4243.080078125,4092.820068359375,4347.68994140625,4630.259765625,4115.3798828125,4624.6201171875,4214.8701171875,4235.89990234375,4198.97021484375,4274.35986328125,4617.9501953125,4337.43994140625,1
527,4283.080078125,4020.0,4251.7900390625,4101.5400390625,4344.6201171875,4627.18017578125,4107.18017578125,4624.10009765625,,4231.7900390625,4202.0498046875,4281.5400390625,4620.509765625,,1
528,4285.64013671875,4014.360107421875,4256.919921875,4101.02978515625,4341.5400390625,,4106.14990234375,4627.18017578125,4210.259765625,4227.18017578125,4198.4599609375,4288.72021484375,4622.56005859375,4350.259765625,1
529,4282.0498046875,4010.260009765625,4252.81982421875,4094.360107421875,4343.58984375,4628.2099609375,4113.330078125,4631.27978515625,,4231.7900390625,,4289.740234375,4625.1298828125,4348.72021484375,1
530,4283.58984375,4017.43994140625,4252.31005859375,,4349.22998046875,4628.2099609375,4114.35986328125,4633.85009765625,4220.509765625,4242.56005859375,4213.85009765625,4292.81982421875,,4350.259765625,1
531,4292.81982421875,4027.179931640625,4258.97021484375,4109.740234375,4353.85009765625,4627.68994140625,4106.669921875,4632.81982421875,4224.10009765625,4242.0498046875,4212.31005859375,4292.81982421875,4627.18017578125,4352.31005859375,1
532,4287.68994140625,4024.10009765625,4261.02978515625,4109.740234375,4352.81982421875,4630.77001953125,4107.68994140625,4635.3798828125,4229.740234375,4237.9501953125,4211.27978515625,4287.68994140625,4625.1298828125,4347.68994140625,1
533,4275.89990234375,4014.360107421875,4258.4599609375,4103.080078125,4348.72021484375,4631.7900390625,4117.43994140625,4643.080078125,4231.7900390625,4240.0,4211.7900390625,4289.740234375,4619.490234375,4343.58984375,1
534,4277.9501953125,4014.360107421875,4262.0498046875,4104.10009765625,4348.72021484375,4632.81982421875,4118.97021484375,4643.58984375,4224.6201171875,,4211.27978515625,4296.919921875,4621.02978515625,4348.72021484375,1
535,4291.27978515625,4022.56005859375,4266.669921875,4107.18017578125,4350.77001953125,4631.27978515625,,4640.0,4223.58984375,4249.22998046875,4218.97021484375,4297.9501953125,4632.31005859375,4356.41015625,1
536,4291.27978515625,4026.14990234375,4266.669921875,4105.1298828125,4348.2099609375,4628.2099609375,4111.27978515625,4643.080078125,4232.31005859375,4248.2099609375,4221.02978515625,4297.43994140625,,4354.35986328125,1
537,4285.64013671875,4021.030029296875,4264.6201171875,4102.56005859375,4349.22998046875,4628.2099609375,,4641.02978515625,4229.740234375,4243.58984375,4209.740234375,4296.41015625,4621.5400390625,,1
538,4288.2099609375,4017.949951171875,,4106.669921875,,4632.81982421875,4115.89990234375,4631.7900390625,4222.56005859375,4240.0,,4295.3798828125,,4349.22998046875,1
539,4288.2099609375,4020.0,4265.1298828125,4109.22998046875,4352.31005859375,,4114.35986328125,4630.259765625,,4240.509765625,4219.490234375,4294.8701171875,4624.6201171875,4350.259765625,1
540,4287.18017578125,4020.510009765625,4264.6201171875,4107.18017578125,4347.18017578125,4629.22998046875,4115.3798828125,,,4238.97021484375,4217.9501953125,4295.3798828125,4623.58984375,4350.77001953125,1
541,4288.2099609375,4016.919921875,4263.58984375,4105.64013671875,,4619.490234375,4111.7900390625,4628.72021484375,4208.2099609375,4233.330078125,4210.77001953125,4295.89990234375,4622.0498046875,4354.8701171875,1
542,4285.64013671875,4014.8701171875,4264.6201171875,,4344.10009765625,4614.35986328125,4102.0498046875,4617.9501953125,4201.5400390625,4228.2099609375,4210.259765625,4293.330078125,4619.490234375,4351.7900390625,1
543,4276.41015625,,4262.56005859375,4096.919921875,4341.5400390625,4617.43994140625,4101.02978515625,4614.35986328125,4199.490234375,4224.10009765625,4207.68994140625,4287.68994140625,4612.81982421875,4341.5400390625,1
544,4271.27978515625,4010.260009765625,4254.35986328125,4092.820068359375,4341.5400390625,,4105.64013671875,4622.0498046875,4207.18017578125,4221.5400390625,4202.0498046875,,4607.18017578125,4338.4599609375,1
545,4270.77001953125,4012.31005859375,4248.2099609375,4097.43994140625,4344.10009765625,4625.64013671875,,4634.35986328125,4220.509765625,4223.58984375,4202.56005859375,4283.58984375,4608.72021484375,4338.97021484375,1
546,4269.22998046875,4013.330078125,,4097.9501953125,4344.6201171875,4621.02978515625,4102.0498046875,4637.43994140625,4221.02978515625,4231.7900390625,4205.1298828125,4284.10009765625,4612.31005859375,4334.8701171875,1
547,4267.68994140625,4011.7900390625,4248.2099609375,4093.85009765625,4344.10009765625,4620.0,4103.58984375,,4211.7900390625,,4204.10009765625,4280.509765625,4610.77001953125,4339.490234375,1
548,4271.7900390625,4017.949951171875,4249.740234375,4098.97021484375,,4624.10009765625,,4626.14990234375,,,4209.22998046875,4282.0498046875,4617.43994140625,4348.72021484375,1
549,4281.02978515625,4026.669921875,4258.97021484375,4107.18017578125,,4626.669921875,4112.31005859375,,4210.77001953125,4232.81982421875,4214.35986328125,4289.22998046875,4626.669921875,4347.18017578125,1
550,4284.10009765625,4025.639892578125,4266.14990234375,4108.2099609375,4344.6201171875,,4112.81982421875,4636.919921875,4212.31005859375,4235.3798828125,4212.81982421875,4293.330078125,4621.5400390625,4344.10009765625,1
551,4280.509765625,4022.56005859375,4262.56005859375,4108.2099609375,4343.58984375,4620.0,4103.58984375,4628.2099609375,4207.68994140625,4228.72021484375,4212.31005859375,4287.68994140625,4613.85009765625,4343.58984375,1
552,4277.43994140625,4023.080078125,4255.89990234375,,4343.080078125,4613.330078125,,4617.43994140625,4207.18017578125,4228.2099609375,4208.72021484375,4278.97021484375,4614.8701171875,4338.97021484375,1
553,4277.9501953125,4023.590087890625,4256.41015625,4105.1298828125,4341.02978515625,4610.259765625,4091.7900390625,,4209.740234375,4231.7900390625,,4280.0,4612.81982421875,4337.43994140625,1
554,4281.02978515625,4023.590087890625,4262.56005859375,4106.14990234375,4344.6201171875,4614.35986328125,4098.4599609375,4622.56005859375,4210.77001953125,4228.2099609375,4206.669921875,4287.68994140625,4609.22998046875,4344.6201171875,1
555,4284.6201171875,4023.590087890625,4270.259765625,4108.2099609375,4347.68994140625,,4107.68994140625,4631.7900390625,4217.9501953125,4227.68994140625,4213.85009765625,4294.8701171875,,,1
556,4281.02978515625,4019.489990234375,4269.740234375,4108.2099609375,4343.080078125,4628.2099609375,,4637.43994140625,4222.0498046875,4231.7900390625,4212.81982421875,,4613.85009765625,4344.10009765625,1
557,4274.8701171875,4011.7900390625,4264.6201171875,4107.68994140625,,4628.72021484375,4114.35986328125,4633.330078125,4209.740234375,,4206.669921875,4291.27978515625,4608.72021484375,4338.97021484375,1
558,4271.7900390625,4007.68994140625,4262.56005859375,4101.5400390625,4335.89990234375,,4116.919921875,4626.669921875,,4215.89990234375,4203.080078125,,4601.5400390625,4338.4599609375,1
559,4268.2099609375,4009.22998046875,4259.490234375,,4335.3798828125,4632.31005859375,4115.3798828125,4626.14990234375,4201.5400390625,4217.9501953125,4204.6201171875,,4600.509765625,4336.919921875,1
560,4265.1298828125,4010.77001953125,4255.89990234375,4102.56005859375,4341.02978515625,4632.31005859375,,4627.68994140625,4206.14990234375,4224.10009765625,4208.72021484375,4289.22998046875,4610.77001953125,4335.3798828125,1
561,4270.77001953125,4017.43994140625,4258.97021484375,4106.14990234375,4347.68994140625,4628.72021484375,4109.740234375,4625.64013671875,4206.14990234375,4224.10009765625,4209.740234375,4286.14990234375,,4342.0498046875,1
562,4282.56005859375,4029.739990234375,4265.1298828125,4109.22998046875,4350.77001953125,4622.56005859375,,4627.68994140625,4222.0498046875,4236.41015625,,4286.14990234375,4620.0,,1
563,4287.68994140625,4034.360107421875,4264.10009765625,4119.490234375,4356.41015625,4622.0498046875,4109.740234375,,4235.89990234375,4250.77001953125,4221.5400390625,4291.27978515625,4624.10009765625,4351.27978515625,1
564,4283.080078125,4028.719970703125,4262.56005859375,4122.0498046875,,4628.72021484375,4117.43994140625,4642.56005859375,4223.080078125,4244.10009765625,4225.1298828125,4290.259765625,4626.14990234375,4347.18017578125,1
565,4280.509765625,,4264.6201171875,4113.330078125,4350.259765625,4630.259765625,4116.919921875,4628.2099609375,,4230.77001953125,4221.02978515625,4289.740234375,4620.0,4347.68994140625,1
566,4282.56005859375,4025.639892578125,4263.58984375,4111.7900390625,4346.14990234375,,4108.2099609375,4616.41015625,4206.669921875,4229.22998046875,4214.8701171875,4293.85009765625,4616.919921875,4350.77001953125,1
567,4284.6201171875,4025.639892578125,4263.58984375,4118.97021484375,4352.31005859375,4629.22998046875,4107.18017578125,,4206.669921875,4230.259765625,4214.8701171875,4293.330078125,4623.58984375,4354.35986328125,1
568,4284.10009765625,4027.68994140625,4264.6201171875,4121.5400390625,4351.27978515625,4634.35986328125,,,,4224.6201171875,4214.8701171875,4286.669921875,4621.5400390625,4349.22998046875,1
569,4281.02978515625,4023.590087890625,4262.0498046875,4116.41015625,4344.6201171875,,4114.8701171875,4622.56005859375,4205.1298828125,4217.9501953125,4210.259765625,4283.58984375,4607.68994140625,4341.5400390625,1
570,4283.080078125,4024.10009765625,,4115.3798828125,4349.740234375,4618.4599609375,4109.740234375,4627.68994140625,,4222.0498046875,4211.7900390625,4288.72021484375,4607.18017578125,,1
